Step    T(K)      KE(kJ)        PE(kJ)       TotE(kJ)
     0      0.153  6.93608e-01 -1.63103e+03 -1.63034e+03
    10      0.490  2.21787e+00 -1.63256e+03 -1.63034e+03
    20      1.351  6.11674e+00 -1.63646e+03 -1.63034e+03
    30      2.664  1.20601e+01 -1.64240e+03 -1.63034e+03
    40      4.330  1.96010e+01 -1.64994e+03 -1.63034e+03
    50      6.243  2.82637e+01 -1.65861e+03 -1.63034e+03
    60      8.309  3.76188e+01 -1.66796e+03 -1.63034e+03
    70     10.454  4.73295e+01 -1.67755e+03 -1.63022e+03
    80     12.627  5.71640e+01 -1.68729e+03 -1.63012e+03
    90     14.797  6.69890e+01 -1.69615e+03 -1.62916e+03
   100     16.948  7.67260e+01 -1.70560e+03 -1.62888e+03
   110     19.071  8.63407e+01 -1.71245e+03 -1.62611e+03
   120     21.172  9.58525e+01 -1.71684e+03 -1.62099e+03
   130     23.240  1.05212e+02 -1.72485e+03 -1.61964e+03
   140     25.258  1.14350e+02 -1.73361e+03 -1.61926e+03
   150     27.217  1.23216e+02 -1.74167e+03 -1.61846e+03
   160     29.105  1.31763e+02 -1.74829e+03 -1.61653e+03
   170     30.907  1.39923e+02 -1.75543e+03 -1.61550e+03
   180     32.603  1.47603e+02 -1.76194e+03 -1.61434e+03
   190     34.178  1.54733e+02 -1.76644e+03 -1.61171e+03
   200     35.618  1.61251e+02 -1.77055e+03 -1.60930e+03
   210     36.906  1.67080e+02 -1.77506e+03 -1.60798e+03
   220     38.030  1.72169e+02 -1.77908e+03 -1.60691e+03
   230     38.986  1.76496e+02 -1.78204e+03 -1.60555e+03
   240     39.775  1.80072e+02 -1.78419e+03 -1.60412e+03
   250     40.407  1.82930e+02 -1.78550e+03 -1.60257e+03
   260     40.891  1.85123e+02 -1.78609e+03 -1.60097e+03
   270     41.244  1.86720e+02 -1.78606e+03 -1.59934e+03
   280     41.481  1.87792e+02 -1.78555e+03 -1.59775e+03
   290     41.616  1.88406e+02 -1.78466e+03 -1.59625e+03
   300     41.664  1.88622e+02 -1.78333e+03 -1.59470e+03
   310     41.635  1.88491e+02 -1.78137e+03 -1.59288e+03
   320     41.538  1.88050e+02 -1.77910e+03 -1.59105e+03
   330     41.376  1.87320e+02 -1.77630e+03 -1.58898e+03
   340     41.154  1.86315e+02 -1.77353e+03 -1.58721e+03
   350     40.875  1.85051e+02 -1.77056e+03 -1.58551e+03
   360     40.548  1.83571e+02 -1.76719e+03 -1.58362e+03
   370     40.198  1.81985e+02 -1.76434e+03 -1.58235e+03
   380     39.871  1.80504e+02 -1.76169e+03 -1.58119e+03
   390     39.635  1.79437e+02 -1.75938e+03 -1.57994e+03
   400     39.566  1.79125e+02 -1.75775e+03 -1.57862e+03
   410     39.722  1.79829e+02 -1.75748e+03 -1.57766e+03
   420     40.122  1.81642e+02 -1.75839e+03 -1.57675e+03
   430     40.756  1.84511e+02 -1.76042e+03 -1.57591e+03
   440     41.600  1.88335e+02 -1.76352e+03 -1.57519e+03
   450     42.642  1.93049e+02 -1.76755e+03 -1.57450e+03
   460     43.880  1.98656e+02 -1.77266e+03 -1.57400e+03
   470     45.323  2.05189e+02 -1.77895e+03 -1.57376e+03
   480     46.982  2.12700e+02 -1.78624e+03 -1.57354e+03
   490     48.882  2.21301e+02 -1.79430e+03 -1.57300e+03
   500     51.073  2.31219e+02 -1.80418e+03 -1.57296e+03
   510     53.636  2.42821e+02 -1.81544e+03 -1.57262e+03
   520     56.648  2.56456e+02 -1.82887e+03 -1.57242e+03
   530     60.132  2.72232e+02 -1.84461e+03 -1.57238e+03
   540     64.037  2.89912e+02 -1.86219e+03 -1.57228e+03
   550     68.256  3.09010e+02 -1.88098e+03 -1.57197e+03
   560     72.673  3.29009e+02 -1.90114e+03 -1.57214e+03
   570     77.209  3.49541e+02 -1.92200e+03 -1.57246e+03
   580     81.842  3.70518e+02 -1.94318e+03 -1.57266e+03
   590     86.626  3.92176e+02 -1.96509e+03 -1.57292e+03
   600     91.655  4.14944e+02 -1.98802e+03 -1.57308e+03
   610     96.999  4.39138e+02 -2.01224e+03 -1.57310e+03
   620    102.627  4.64614e+02 -2.03777e+03 -1.57316e+03
   630    108.390  4.90707e+02 -2.06383e+03 -1.57312e+03
   640    114.099  5.16553e+02 -2.08951e+03 -1.57296e+03
   650    119.600  5.41455e+02 -2.11405e+03 -1.57260e+03
   660    124.803  5.65011e+02 -2.13757e+03 -1.57256e+03
   670    129.668  5.87036e+02 -2.15946e+03 -1.57242e+03
   680    134.156  6.07354e+02 -2.17955e+03 -1.57220e+03
   690    138.171  6.25530e+02 -2.19711e+03 -1.57158e+03
   700    141.516  6.40674e+02 -2.21189e+03 -1.57122e+03
   710    143.940  6.51648e+02 -2.22238e+03 -1.57074e+03
   720    145.299  6.57802e+02 -2.22802e+03 -1.57021e+03
   730    145.711  6.59664e+02 -2.22964e+03 -1.56997e+03
   740    145.494  6.58684e+02 -2.22851e+03 -1.56983e+03
   750    144.955  6.56244e+02 -2.22591e+03 -1.56967e+03
   760    144.293  6.53249e+02 -2.22256e+03 -1.56931e+03
   770    143.649  6.50331e+02 -2.21936e+03 -1.56903e+03
   780    143.106  6.47873e+02 -2.21650e+03 -1.56863e+03
   790    142.650  6.45808e+02 -2.21403e+03 -1.56822e+03
   800    142.205  6.43794e+02 -2.21116e+03 -1.56736e+03
   810    141.723  6.41610e+02 -2.20857e+03 -1.56696e+03
   820    141.174  6.39125e+02 -2.20576e+03 -1.56664e+03
   830    140.501  6.36078e+02 -2.20258e+03 -1.56650e+03
   840    139.612  6.32056e+02 -2.19811e+03 -1.56606e+03
   850    138.397  6.26553e+02 -2.19227e+03 -1.56572e+03
   860    136.761  6.19149e+02 -2.18449e+03 -1.56534e+03
   870    134.721  6.09911e+02 -2.17503e+03 -1.56511e+03
   880    132.527  5.99980e+02 -2.16495e+03 -1.56497e+03
   890    130.692  5.91670e+02 -2.15652e+03 -1.56485e+03
   900    129.665  5.87021e+02 -2.15117e+03 -1.56415e+03
   910    129.382  5.85740e+02 -2.14935e+03 -1.56361e+03
   920    129.396  5.85807e+02 -2.14948e+03 -1.56367e+03
   930    129.477  5.86174e+02 -2.14972e+03 -1.56355e+03
   940    129.751  5.87414e+02 -2.15072e+03 -1.56331e+03
   950    130.369  5.90210e+02 -2.15350e+03 -1.56329e+03
   960    131.282  5.94342e+02 -2.15735e+03 -1.56301e+03
   970    132.342  5.99140e+02 -2.16195e+03 -1.56281e+03
   980    133.385  6.03865e+02 -2.16661e+03 -1.56275e+03
   990    134.157  6.07359e+02 -2.17017e+03 -1.56281e+03
  1000    134.317  6.08083e+02 -2.17093e+03 -1.56285e+03
  1010    133.670  6.05152e+02 -2.16800e+03 -1.56285e+03
  1020    132.327  5.99073e+02 -2.16194e+03 -1.56287e+03
  1030    130.601  5.91260e+02 -2.15408e+03 -1.56282e+03
  1040    128.817  5.83184e+02 -2.14561e+03 -1.56242e+03
  1050    127.232  5.76008e+02 -2.13811e+03 -1.56210e+03
  1060    126.050  5.70658e+02 -2.13278e+03 -1.56212e+03
  1070    125.430  5.67851e+02 -2.12959e+03 -1.56174e+03
  1080    125.455  5.67965e+02 -2.12902e+03 -1.56106e+03
  1090    126.100  5.70884e+02 -2.13182e+03 -1.56094e+03
  1100    127.233  5.76014e+02 -2.13699e+03 -1.56098e+03
  1110    128.610  5.82245e+02 -2.14316e+03 -1.56092e+03
  1120    129.926  5.88203e+02 -2.14922e+03 -1.56102e+03
  1130    130.924  5.92723e+02 -2.15344e+03 -1.56072e+03
  1140    131.391  5.94836e+02 -2.15568e+03 -1.56084e+03
  1150    131.123  5.93625e+02 -2.15440e+03 -1.56078e+03
  1160    130.140  5.89173e+02 -2.14993e+03 -1.56076e+03
  1170    128.811  5.83156e+02 -2.14363e+03 -1.56047e+03
  1180    127.643  5.77868e+02 -2.13832e+03 -1.56045e+03
  1190    127.014  5.75020e+02 -2.13527e+03 -1.56025e+03
  1200    127.058  5.75222e+02 -2.13567e+03 -1.56045e+03
  1210    127.597  5.77659e+02 -2.13821e+03 -1.56055e+03
  1220    128.201  5.80396e+02 -2.14109e+03 -1.56070e+03
  1230    128.440  5.81475e+02 -2.14207e+03 -1.56060e+03
  1240    128.117  5.80015e+02 -2.14053e+03 -1.56052e+03
  1250    127.371  5.76636e+02 -2.13709e+03 -1.56045e+03
  1260    126.573  5.73023e+02 -2.13360e+03 -1.56057e+03
  1270    126.041  5.70617e+02 -2.13125e+03 -1.56063e+03
  1280    125.775  5.69410e+02 -2.13019e+03 -1.56078e+03
  1290    125.491  5.68127e+02 -2.12862e+03 -1.56050e+03
  1300    124.917  5.65529e+02 -2.12606e+03 -1.56054e+03
  1310    123.998  5.61366e+02 -2.12184e+03 -1.56047e+03
  1320    122.947  5.56609e+02 -2.11670e+03 -1.56009e+03
  1330    122.154  5.53017e+02 -2.11311e+03 -1.56009e+03
  1340    121.908  5.51907e+02 -2.11166e+03 -1.55975e+03
  1350    122.236  5.53390e+02 -2.11308e+03 -1.55969e+03
  1360    123.045  5.57053e+02 -2.11632e+03 -1.55927e+03
  1370    124.248  5.62499e+02 -2.12141e+03 -1.55891e+03
  1380    125.698  5.69061e+02 -2.12807e+03 -1.55901e+03
  1390    127.137  5.75576e+02 -2.13468e+03 -1.55911e+03
  1400    128.247  5.80605e+02 -2.13988e+03 -1.55927e+03
  1410    128.747  5.82866e+02 -2.14210e+03 -1.55923e+03
  1420    128.484  5.81676e+02 -2.14085e+03 -1.55917e+03
  1430    127.515  5.77287e+02 -2.13640e+03 -1.55911e+03
  1440    126.116  5.70957e+02 -2.12952e+03 -1.55857e+03
  1450    124.690  5.64498e+02 -2.12296e+03 -1.55847e+03
  1460    123.542  5.59302e+02 -2.11775e+03 -1.55844e+03
  1470    122.726  5.55609e+02 -2.11409e+03 -1.55849e+03
  1480    122.123  5.52878e+02 -2.11132e+03 -1.55845e+03
  1490    121.663  5.50795e+02 -2.10934e+03 -1.55855e+03
  1500    121.330  5.49286e+02 -2.10787e+03 -1.55859e+03
  1510    120.954  5.47588e+02 -2.10628e+03 -1.55869e+03
  1520    120.232  5.44319e+02 -2.10317e+03 -1.55885e+03
  1530    119.067  5.39042e+02 -2.09781e+03 -1.55877e+03
  1540    117.757  5.33111e+02 -2.09202e+03 -1.55891e+03
  1550    116.796  5.28763e+02 -2.08771e+03 -1.55895e+03
  1560    116.529  5.27555e+02 -2.08668e+03 -1.55913e+03
  1570    116.971  5.29555e+02 -2.08822e+03 -1.55867e+03
  1580    117.916  5.33834e+02 -2.09226e+03 -1.55843e+03
  1590    119.130  5.39327e+02 -2.09781e+03 -1.55849e+03
  1600    120.385  5.45010e+02 -2.10348e+03 -1.55847e+03
  1610    121.404  5.49623e+02 -2.10779e+03 -1.55817e+03
  1620    121.895  5.51847e+02 -2.11005e+03 -1.55821e+03
  1630    121.707  5.50993e+02 -2.10886e+03 -1.55787e+03
  1640    120.916  5.47415e+02 -2.10512e+03 -1.55770e+03
  1650    119.797  5.42349e+02 -2.10031e+03 -1.55796e+03
  1660    118.718  5.37462e+02 -2.09516e+03 -1.55770e+03
  1670    118.013  5.34273e+02 -2.09197e+03 -1.55770e+03
  1680    117.863  5.33592e+02 -2.09111e+03 -1.55752e+03
  1690    118.202  5.35128e+02 -2.09285e+03 -1.55772e+03
  1700    118.747  5.37596e+02 -2.09536e+03 -1.55776e+03
  1710    119.131  5.39331e+02 -2.09671e+03 -1.55738e+03
  1720    119.053  5.38981e+02 -2.09626e+03 -1.55728e+03
  1730    118.397  5.36010e+02 -2.09335e+03 -1.55734e+03
  1740    117.255  5.30841e+02 -2.08814e+03 -1.55730e+03
  1750    115.883  5.24627e+02 -2.08179e+03 -1.55716e+03
  1760    114.592  5.18785e+02 -2.07603e+03 -1.55724e+03
  1770    113.648  5.14509e+02 -2.07145e+03 -1.55694e+03
  1780    113.202  5.12489e+02 -2.06955e+03 -1.55706e+03
  1790    113.270  5.12800e+02 -2.06978e+03 -1.55698e+03
  1800    113.731  5.14887e+02 -2.07201e+03 -1.55712e+03
  1810    114.359  5.17730e+02 -2.07477e+03 -1.55704e+03
  1820    114.916  5.20251e+02 -2.07749e+03 -1.55724e+03
  1830    115.236  5.21698e+02 -2.07870e+03 -1.55700e+03
  1840    115.282  5.21909e+02 -2.07905e+03 -1.55714e+03
  1850    115.163  5.21370e+02 -2.07861e+03 -1.55724e+03
  1860    115.077  5.20981e+02 -2.07810e+03 -1.55712e+03
  1870    115.236  5.21700e+02 -2.07874e+03 -1.55704e+03
  1880    115.778  5.24154e+02 -2.08117e+03 -1.55702e+03
  1890    116.665  5.28167e+02 -2.08519e+03 -1.55702e+03
  1900    117.646  5.32610e+02 -2.08953e+03 -1.55692e+03
  1910    118.407  5.36055e+02 -2.09296e+03 -1.55690e+03
  1920    118.730  5.37517e+02 -2.09462e+03 -1.55710e+03
  1930    118.534  5.36630e+02 -2.09329e+03 -1.55666e+03
  1940    117.843  5.33503e+02 -2.08998e+03 -1.55648e+03
  1950    116.773  5.28660e+02 -2.08506e+03 -1.55640e+03
  1960    115.510  5.22939e+02 -2.07970e+03 -1.55676e+03
  1970    114.257  5.17266e+02 -2.07384e+03 -1.55658e+03
  1980    113.173  5.12360e+02 -2.06894e+03 -1.55658e+03
  1990    112.359  5.08672e+02 -2.06519e+03 -1.55652e+03
  2000    111.896  5.06577e+02 -2.06311e+03 -1.55654e+03
  2010    111.879  5.06501e+02 -2.06288e+03 -1.55638e+03
  2020    112.354  5.08651e+02 -2.06519e+03 -1.55654e+03
  2030    113.247  5.12693e+02 -2.06913e+03 -1.55644e+03
  2040    114.380  5.17822e+02 -2.07418e+03 -1.55636e+03
  2050    115.563  5.23180e+02 -2.07916e+03 -1.55598e+03
  2060    116.649  5.28096e+02 -2.08393e+03 -1.55584e+03
  2070    117.522  5.32049e+02 -2.08787e+03 -1.55582e+03
  2080    118.111  5.34715e+02 -2.09049e+03 -1.55578e+03
  2090    118.415  5.36092e+02 -2.09181e+03 -1.55572e+03
  2100    118.482  5.36394e+02 -2.09213e+03 -1.55574e+03
  2110    118.379  5.35930e+02 -2.09169e+03 -1.55576e+03
  2120    118.172  5.34993e+02 -2.09075e+03 -1.55576e+03
  2130    117.895  5.33739e+02 -2.08931e+03 -1.55558e+03
  2140    117.555  5.32199e+02 -2.08791e+03 -1.55572e+03
  2150    117.151  5.30368e+02 -2.08600e+03 -1.55564e+03
  2160    116.684  5.28254e+02 -2.08395e+03 -1.55570e+03
  2170    116.186  5.26002e+02 -2.08146e+03 -1.55545e+03
  2180    115.727  5.23922e+02 -2.07938e+03 -1.55545e+03
  2190    115.362  5.22268e+02 -2.07782e+03 -1.55555e+03
  2200    115.073  5.20960e+02 -2.07647e+03 -1.55552e+03
  2210    114.785  5.19659e+02 -2.07534e+03 -1.55568e+03
  2220    114.447  5.18127e+02 -2.07396e+03 -1.55584e+03
  2230    114.064  5.16392e+02 -2.07223e+03 -1.55584e+03
  2240    113.702  5.14753e+02 -2.07065e+03 -1.55590e+03
  2250    113.471  5.13708e+02 -2.06985e+03 -1.55614e+03
  2260    113.486  5.13775e+02 -2.06977e+03 -1.55600e+03
  2270    113.771  5.15065e+02 -2.07092e+03 -1.55586e+03
  2280    114.225  5.17123e+02 -2.07308e+03 -1.55596e+03
  2290    114.700  5.19275e+02 -2.07539e+03 -1.55612e+03
  2300    115.108  5.21119e+02 -2.07724e+03 -1.55612e+03
  2310    115.445  5.22644e+02 -2.07900e+03 -1.55636e+03
  2320    115.719  5.23888e+02 -2.08035e+03 -1.55646e+03
  2330    115.864  5.24544e+02 -2.08102e+03 -1.55648e+03
  2340    115.766  5.24099e+02 -2.08078e+03 -1.55668e+03
  2350    115.415  5.22511e+02 -2.07893e+03 -1.55642e+03
  2360    114.984  5.20559e+02 -2.07700e+03 -1.55644e+03
  2370    114.735  5.19432e+02 -2.07585e+03 -1.55642e+03
  2380    114.865  5.20022e+02 -2.07668e+03 -1.55666e+03
  2390    115.398  5.22432e+02 -2.07907e+03 -1.55664e+03
  2400    116.200  5.26063e+02 -2.08264e+03 -1.55658e+03
  2410    117.070  5.30004e+02 -2.08654e+03 -1.55654e+03
  2420    117.821  5.33404e+02 -2.08982e+03 -1.55642e+03
  2430    118.341  5.35757e+02 -2.09224e+03 -1.55648e+03
  2440    118.631  5.37071e+02 -2.09359e+03 -1.55652e+03
  2450    118.748  5.37598e+02 -2.09412e+03 -1.55652e+03
  2460    118.723  5.37487e+02 -2.09425e+03 -1.55676e+03
  2470    118.553  5.36716e+02 -2.09320e+03 -1.55648e+03
  2480    118.233  5.35267e+02 -2.09187e+03 -1.55660e+03
  2490    117.779  5.33214e+02 -2.08983e+03 -1.55662e+03
  2500    117.222  5.30693e+02 -2.08715e+03 -1.55646e+03
  2510    116.615  5.27945e+02 -2.08442e+03 -1.55648e+03
  2520    116.054  5.25404e+02 -2.08208e+03 -1.55668e+03
  2530    115.662  5.23629e+02 -2.08017e+03 -1.55654e+03
  2540    115.543  5.23090e+02 -2.07939e+03 -1.55630e+03
  2550    115.707  5.23834e+02 -2.08007e+03 -1.55624e+03
  2560    116.027  5.25281e+02 -2.08182e+03 -1.55654e+03
  2570    116.288  5.26464e+02 -2.08268e+03 -1.55622e+03
  2580    116.320  5.26607e+02 -2.08303e+03 -1.55642e+03
  2590    116.100  5.25611e+02 -2.08189e+03 -1.55628e+03
  2600    115.747  5.24015e+02 -2.08047e+03 -1.55646e+03
  2610    115.418  5.22524e+02 -2.07894e+03 -1.55642e+03
  2620    115.220  5.21626e+02 -2.07766e+03 -1.55604e+03
  2630    115.206  5.21563e+02 -2.07740e+03 -1.55584e+03
  2640    115.397  5.22430e+02 -2.07841e+03 -1.55598e+03
  2650    115.795  5.24232e+02 -2.08023e+03 -1.55600e+03
  2660    116.387  5.26909e+02 -2.08329e+03 -1.55638e+03
  2670    117.131  5.30280e+02 -2.08668e+03 -1.55640e+03
  2680    117.945  5.33965e+02 -2.09043e+03 -1.55646e+03
  2690    118.671  5.37250e+02 -2.09379e+03 -1.55654e+03
  2700    119.084  5.39120e+02 -2.09600e+03 -1.55688e+03
  2710    119.029  5.38871e+02 -2.09575e+03 -1.55688e+03
  2720    118.589  5.36880e+02 -2.09354e+03 -1.55666e+03
  2730    118.079  5.34571e+02 -2.09121e+03 -1.55664e+03
  2740    117.845  5.33510e+02 -2.09043e+03 -1.55692e+03
  2750    118.055  5.34461e+02 -2.09144e+03 -1.55698e+03
  2760    118.626  5.37045e+02 -2.09407e+03 -1.55702e+03
  2770    119.305  5.40122e+02 -2.09706e+03 -1.55694e+03
  2780    119.838  5.42531e+02 -2.09939e+03 -1.55686e+03
  2790    120.054  5.43511e+02 -2.10025e+03 -1.55674e+03
  2800    119.878  5.42716e+02 -2.09946e+03 -1.55674e+03
  2810    119.294  5.40071e+02 -2.09695e+03 -1.55688e+03
  2820    118.339  5.35747e+02 -2.09253e+03 -1.55678e+03
  2830    117.124  5.30246e+02 -2.08681e+03 -1.55656e+03
  2840    115.856  5.24507e+02 -2.08113e+03 -1.55662e+03
  2850    114.835  5.19883e+02 -2.07628e+03 -1.55640e+03
  2860    114.331  5.17602e+02 -2.07402e+03 -1.55642e+03
  2870    114.415  5.17981e+02 -2.07458e+03 -1.55660e+03
  2880    114.850  5.19950e+02 -2.07639e+03 -1.55644e+03
  2890    115.186  5.21473e+02 -2.07789e+03 -1.55642e+03
  2900    115.058  5.20895e+02 -2.07720e+03 -1.55630e+03
  2910    114.418  5.17996e+02 -2.07424e+03 -1.55624e+03
  2920    113.512  5.13896e+02 -2.06997e+03 -1.55608e+03
  2930    112.703  5.10231e+02 -2.06605e+03 -1.55582e+03
  2940    112.280  5.08319e+02 -2.06426e+03 -1.55594e+03
  2950    112.390  5.08813e+02 -2.06471e+03 -1.55590e+03
  2960    113.013  5.11635e+02 -2.06763e+03 -1.55600e+03
  2970    113.971  5.15971e+02 -2.07193e+03 -1.55596e+03
  2980    114.960  5.20450e+02 -2.07653e+03 -1.55608e+03
  2990    115.685  5.23731e+02 -2.07969e+03 -1.55596e+03
  3000    115.971  5.25027e+02 -2.08081e+03 -1.55578e+03
  3010    115.807  5.24286e+02 -2.07998e+03 -1.55570e+03
  3020    115.305  5.22012e+02 -2.07757e+03 -1.55556e+03
  3030    114.634  5.18972e+02 -2.07451e+03 -1.55553e+03
  3040    113.966  5.15949e+02 -2.07140e+03 -1.55545e+03
  3050    113.450  5.13611e+02 -2.06949e+03 -1.55588e+03
  3060    113.194  5.12456e+02 -2.06851e+03 -1.55606e+03
  3070    113.244  5.12679e+02 -2.06845e+03 -1.55578e+03
  3080    113.562  5.14120e+02 -2.07014e+03 -1.55602e+03
  3090    114.054  5.16348e+02 -2.07244e+03 -1.55610e+03
  3100    114.605  5.18844e+02 -2.07468e+03 -1.55584e+03
  3110    115.123  5.21187e+02 -2.07708e+03 -1.55590e+03
  3120    115.550  5.23121e+02 -2.07896e+03 -1.55584e+03
  3130    115.854  5.24497e+02 -2.08019e+03 -1.55570e+03
  3140    116.041  5.25343e+02 -2.08110e+03 -1.55576e+03
  3150    116.168  5.25917e+02 -2.08173e+03 -1.55582e+03
  3160    116.329  5.26649e+02 -2.08242e+03 -1.55578e+03
  3170    116.606  5.27902e+02 -2.08370e+03 -1.55580e+03
  3180    116.993  5.29655e+02 -2.08519e+03 -1.55554e+03
  3190    117.329  5.31175e+02 -2.08689e+03 -1.55572e+03
  3200    117.333  5.31192e+02 -2.08719e+03 -1.55600e+03
  3210    116.822  5.28877e+02 -2.08502e+03 -1.55614e+03
  3220    115.968  5.25015e+02 -2.08123e+03 -1.55622e+03
  3230    115.130  5.21219e+02 -2.07732e+03 -1.55610e+03
  3240    114.424  5.18024e+02 -2.07404e+03 -1.55602e+03
  3250    113.808  5.15232e+02 -2.07105e+03 -1.55582e+03
  3260    113.344  5.13132e+02 -2.06915e+03 -1.55602e+03
  3270    113.178  5.12381e+02 -2.06820e+03 -1.55582e+03
  3280    113.351  5.13166e+02 -2.06872e+03 -1.55555e+03
  3290    113.739  5.14924e+02 -2.07070e+03 -1.55578e+03
  3300    114.190  5.16966e+02 -2.07278e+03 -1.55582e+03
  3310    114.625  5.18935e+02 -2.07465e+03 -1.55572e+03
  3320    114.966  5.20478e+02 -2.07611e+03 -1.55564e+03
  3330    115.061  5.20906e+02 -2.07662e+03 -1.55572e+03
  3340    114.746  5.19479e+02 -2.07522e+03 -1.55574e+03
  3350    113.941  5.15835e+02 -2.07153e+03 -1.55570e+03
  3360    112.721  5.10312e+02 -2.06637e+03 -1.55606e+03
  3370    111.341  5.04066e+02 -2.06016e+03 -1.55610e+03
  3380    110.176  4.98794e+02 -2.05473e+03 -1.55594e+03
  3390    109.569  4.96043e+02 -2.05188e+03 -1.55583e+03
  3400    109.687  4.96579e+02 -2.05233e+03 -1.55575e+03
  3410    110.527  5.00380e+02 -2.05579e+03 -1.55541e+03
  3420    111.975  5.06936e+02 -2.06235e+03 -1.55541e+03
  3430    113.833  5.15349e+02 -2.07066e+03 -1.55531e+03
  3440    115.813  5.24313e+02 -2.07985e+03 -1.55554e+03
  3450    117.568  5.32256e+02 -2.08767e+03 -1.55542e+03
  3460    118.767  5.37683e+02 -2.09338e+03 -1.55570e+03
  3470    119.232  5.39790e+02 -2.09527e+03 -1.55548e+03
  3480    119.103  5.39204e+02 -2.09448e+03 -1.55527e+03
  3490    118.760  5.37653e+02 -2.09309e+03 -1.55543e+03
  3500    118.433  5.36175e+02 -2.09183e+03 -1.55566e+03
  3510    118.046  5.34421e+02 -2.09034e+03 -1.55592e+03
  3520    117.517  5.32027e+02 -2.08826e+03 -1.55624e+03
  3530    116.889  5.29185e+02 -2.08534e+03 -1.55616e+03
  3540    116.220  5.26152e+02 -2.08247e+03 -1.55632e+03
  3550    115.526  5.23014e+02 -2.07909e+03 -1.55608e+03
  3560    114.838  5.19897e+02 -2.07619e+03 -1.55630e+03
  3570    114.235  5.17166e+02 -2.07338e+03 -1.55622e+03
  3580    113.815  5.15268e+02 -2.07146e+03 -1.55620e+03
  3590    113.623  5.14395e+02 -2.07093e+03 -1.55654e+03
  3600    113.632  5.14439e+02 -2.07114e+03 -1.55670e+03
  3610    113.807  5.15230e+02 -2.07201e+03 -1.55678e+03
  3620    114.124  5.16663e+02 -2.07352e+03 -1.55686e+03
  3630    114.546  5.18575e+02 -2.07545e+03 -1.55688e+03
  3640    114.993  5.20598e+02 -2.07750e+03 -1.55690e+03
  3650    115.346  5.22199e+02 -2.07922e+03 -1.55702e+03
  3660    115.477  5.22792e+02 -2.08003e+03 -1.55724e+03
  3670    115.267  5.21838e+02 -2.07892e+03 -1.55708e+03
  3680    114.642  5.19009e+02 -2.07561e+03 -1.55660e+03
  3690    113.660  5.14565e+02 -2.07122e+03 -1.55666e+03
  3700    112.576  5.09657e+02 -2.06613e+03 -1.55648e+03
  3710    111.777  5.06040e+02 -2.06246e+03 -1.55642e+03
  3720    111.556  5.05040e+02 -2.06146e+03 -1.55642e+03
  3730    111.895  5.06573e+02 -2.06283e+03 -1.55626e+03
  3740    112.541  5.09499e+02 -2.06608e+03 -1.55658e+03
  3750    113.246  5.12689e+02 -2.06939e+03 -1.55670e+03
  3760    113.878  5.15550e+02 -2.07209e+03 -1.55654e+03
  3770    114.427  5.18037e+02 -2.07453e+03 -1.55650e+03
  3780    114.962  5.20457e+02 -2.07705e+03 -1.55660e+03
  3790    115.536  5.23055e+02 -2.07949e+03 -1.55644e+03
  3800    116.105  5.25632e+02 -2.08213e+03 -1.55650e+03
  3810    116.561  5.27699e+02 -2.08454e+03 -1.55684e+03
  3820    116.843  5.28973e+02 -2.08619e+03 -1.55722e+03
  3830    117.013  5.29743e+02 -2.08702e+03 -1.55728e+03
  3840    117.211  5.30641e+02 -2.08774e+03 -1.55710e+03
  3850    117.537  5.32117e+02 -2.08932e+03 -1.55720e+03
  3860    117.952  5.33996e+02 -2.09134e+03 -1.55734e+03
  3870    118.293  5.35541e+02 -2.09276e+03 -1.55722e+03
  3880    118.392  5.35986e+02 -2.09347e+03 -1.55748e+03
  3890    118.184  5.35044e+02 -2.09247e+03 -1.55742e+03
  3900    117.691  5.32815e+02 -2.09010e+03 -1.55728e+03
  3910    116.916  5.29306e+02 -2.08675e+03 -1.55744e+03
  3920    115.811  5.24304e+02 -2.08159e+03 -1.55728e+03
  3930    114.363  5.17749e+02 -2.07509e+03 -1.55734e+03
  3940    112.673  5.10095e+02 -2.06725e+03 -1.55716e+03
  3950    110.978  5.02422e+02 -2.05938e+03 -1.55696e+03
  3960    109.651  4.96416e+02 -2.05333e+03 -1.55692e+03
  3970    109.097  4.93907e+02 -2.05072e+03 -1.55682e+03
  3980    109.538  4.95904e+02 -2.05294e+03 -1.55704e+03
  3990    110.867  5.01922e+02 -2.05896e+03 -1.55704e+03
  4000    112.730  5.10352e+02 -2.06733e+03 -1.55698e+03
  4010    114.725  5.19384e+02 -2.07618e+03 -1.55680e+03
  4020    116.545  5.27627e+02 -2.08473e+03 -1.55710e+03
  4030    118.000  5.34210e+02 -2.09137e+03 -1.55716e+03
  4040    118.978  5.38639e+02 -2.09582e+03 -1.55718e+03
  4050    119.452  5.40788e+02 -2.09781e+03 -1.55702e+03
  4060    119.459  5.40818e+02 -2.09782e+03 -1.55700e+03
  4070    119.038  5.38912e+02 -2.09577e+03 -1.55686e+03
  4080    118.222  5.35216e+02 -2.09226e+03 -1.55704e+03
  4090    117.135  5.30298e+02 -2.08726e+03 -1.55696e+03
  4100    116.069  5.25470e+02 -2.08229e+03 -1.55682e+03
  4110    115.350  5.22216e+02 -2.07923e+03 -1.55702e+03
  4120    115.123  5.21187e+02 -2.07833e+03 -1.55714e+03
  4130    115.281  5.21904e+02 -2.07904e+03 -1.55714e+03
  4140    115.621  5.23443e+02 -2.08062e+03 -1.55718e+03
  4150    115.975  5.25045e+02 -2.08200e+03 -1.55696e+03
  4160    116.249  5.26284e+02 -2.08324e+03 -1.55696e+03
  4170    116.408  5.27003e+02 -2.08404e+03 -1.55704e+03
  4180    116.448  5.27184e+02 -2.08402e+03 -1.55684e+03
  4190    116.346  5.26726e+02 -2.08326e+03 -1.55654e+03
  4200    116.068  5.25465e+02 -2.08214e+03 -1.55668e+03
  4210    115.638  5.23519e+02 -2.08014e+03 -1.55662e+03
  4220    115.128  5.21209e+02 -2.07789e+03 -1.55668e+03
  4230    114.577  5.18715e+02 -2.07545e+03 -1.55674e+03
  4240    113.988  5.16048e+02 -2.07289e+03 -1.55684e+03
  4250    113.397  5.13372e+02 -2.07015e+03 -1.55678e+03
  4260    112.926  5.11244e+02 -2.06782e+03 -1.55658e+03
  4270    112.766  5.10515e+02 -2.06699e+03 -1.55648e+03
  4280    113.057  5.11835e+02 -2.06831e+03 -1.55648e+03
  4290    113.781  5.15110e+02 -2.07171e+03 -1.55660e+03
  4300    114.727  5.19394e+02 -2.07587e+03 -1.55648e+03
  4310    115.590  5.23303e+02 -2.07988e+03 -1.55658e+03
  4320    116.149  5.25833e+02 -2.08241e+03 -1.55658e+03
  4330    116.383  5.26891e+02 -2.08367e+03 -1.55678e+03
  4340    116.424  5.27077e+02 -2.08373e+03 -1.55666e+03
  4350    116.404  5.26989e+02 -2.08375e+03 -1.55676e+03
  4360    116.368  5.26824e+02 -2.08386e+03 -1.55704e+03
  4370    116.298  5.26509e+02 -2.08357e+03 -1.55706e+03
  4380    116.190  5.26020e+02 -2.08300e+03 -1.55698e+03
  4390    116.091  5.25568e+02 -2.08265e+03 -1.55708e+03
  4400    116.102  5.25618e+02 -2.08249e+03 -1.55688e+03
  4410    116.372  5.26841e+02 -2.08362e+03 -1.55678e+03
  4420    117.045  5.29887e+02 -2.08648e+03 -1.55660e+03
  4430    118.129  5.34798e+02 -2.09139e+03 -1.55660e+03
  4440    119.434  5.40703e+02 -2.09744e+03 -1.55674e+03
  4450    120.691  5.46393e+02 -2.10325e+03 -1.55686e+03
  4460    121.720  5.51054e+02 -2.10809e+03 -1.55704e+03
  4470    122.448  5.54349e+02 -2.11133e+03 -1.55698e+03
  4480    122.848  5.56160e+02 -2.11308e+03 -1.55692e+03
  4490    122.887  5.56336e+02 -2.11342e+03 -1.55708e+03
  4500    122.515  5.54652e+02 -2.11165e+03 -1.55700e+03
  4510    121.678  5.50862e+02 -2.10798e+03 -1.55712e+03
  4520    120.369  5.44938e+02 -2.10202e+03 -1.55708e+03
  4530    118.717  5.37459e+02 -2.09474e+03 -1.55728e+03
  4540    117.012  5.29740e+02 -2.08692e+03 -1.55718e+03
  4550    115.601  5.23354e+02 -2.08033e+03 -1.55698e+03
  4560    114.722  5.19371e+02 -2.07655e+03 -1.55718e+03
  4570    114.443  5.18109e+02 -2.07509e+03 -1.55698e+03
  4580    114.733  5.19423e+02 -2.07598e+03 -1.55656e+03
  4590    115.549  5.23117e+02 -2.07963e+03 -1.55652e+03
  4600    116.860  5.29051e+02 -2.08591e+03 -1.55686e+03
  4610    118.533  5.36625e+02 -2.09336e+03 -1.55674e+03
  4620    120.207  5.44203e+02 -2.10064e+03 -1.55644e+03
  4630    121.459  5.49873e+02 -2.10641e+03 -1.55654e+03
  4640    122.048  5.52538e+02 -2.10890e+03 -1.55636e+03
  4650    121.939  5.52047e+02 -2.10816e+03 -1.55612e+03
  4660    121.217  5.48777e+02 -2.10473e+03 -1.55596e+03
  4670    120.021  5.43364e+02 -2.09940e+03 -1.55604e+03
  4680    118.557  5.36733e+02 -2.09259e+03 -1.55585e+03
  4690    117.096  5.30119e+02 -2.08615e+03 -1.55603e+03
  4700    115.899  5.24701e+02 -2.08053e+03 -1.55583e+03
  4710    115.104  5.21103e+02 -2.07700e+03 -1.55589e+03
  4720    114.681  5.19187e+02 -2.07488e+03 -1.55569e+03
  4730    114.491  5.18327e+02 -2.07414e+03 -1.55581e+03
  4740    114.367  5.17766e+02 -2.07350e+03 -1.55573e+03
  4750    114.139  5.16734e+02 -2.07235e+03 -1.55561e+03
  4760    113.692  5.14708e+02 -2.07002e+03 -1.55531e+03
  4770    113.077  5.11924e+02 -2.06752e+03 -1.55559e+03
  4780    112.501  5.09315e+02 -2.06481e+03 -1.55549e+03
  4790    112.145  5.07705e+02 -2.06344e+03 -1.55573e+03
  4800    112.051  5.07279e+02 -2.06341e+03 -1.55613e+03
  4810    112.180  5.07863e+02 -2.06380e+03 -1.55593e+03
  4820    112.510  5.09358e+02 -2.06489e+03 -1.55553e+03
  4830    113.017  5.11653e+02 -2.06747e+03 -1.55581e+03
  4840    113.626  5.14410e+02 -2.07043e+03 -1.55602e+03
  4850    114.248  5.17228e+02 -2.07304e+03 -1.55581e+03
  4860    114.869  5.20039e+02 -2.07583e+03 -1.55579e+03
  4870    115.539  5.23073e+02 -2.07891e+03 -1.55583e+03
  4880    116.294  5.26491e+02 -2.08245e+03 -1.55595e+03
  4890    117.092  5.30104e+02 -2.08630e+03 -1.55620e+03
  4900    117.820  5.33397e+02 -2.08975e+03 -1.55636e+03
  4910    118.360  5.35845e+02 -2.09230e+03 -1.55646e+03
  4920    118.680  5.37292e+02 -2.09385e+03 -1.55656e+03
  4930    118.866  5.38132e+02 -2.09459e+03 -1.55646e+03
  4940    119.051  5.38969e+02 -2.09537e+03 -1.55640e+03
  4950    119.275  5.39984e+02 -2.09652e+03 -1.55654e+03
  4960    119.452  5.40787e+02 -2.09706e+03 -1.55628e+03
  4970    119.506  5.41031e+02 -2.09705e+03 -1.55602e+03
  4980    119.452  5.40788e+02 -2.09682e+03 -1.55604e+03
  4990    119.363  5.40384e+02 -2.09606e+03 -1.55567e+03
  5000    119.276  5.39989e+02 -2.09586e+03 -1.55587e+03
  5010    119.160  5.39465e+02 -2.09542e+03 -1.55596e+03
  5020    118.927  5.38409e+02 -2.09416e+03 -1.55575e+03
  5030    118.531  5.36618e+02 -2.09243e+03 -1.55582e+03
  5040    118.060  5.34483e+02 -2.09030e+03 -1.55581e+03
  5050    117.661  5.32677e+02 -2.08845e+03 -1.55577e+03
  5060    117.396  5.31477e+02 -2.08743e+03 -1.55596e+03
  5070    117.189  5.30541e+02 -2.08654e+03 -1.55600e+03
  5080    116.935  5.29390e+02 -2.08557e+03 -1.55618e+03
  5090    116.631  5.28016e+02 -2.08429e+03 -1.55628e+03
  5100    116.400  5.26969e+02 -2.08322e+03 -1.55626e+03
  5110    116.398  5.26958e+02 -2.08343e+03 -1.55648e+03
  5120    116.719  5.28414e+02 -2.08499e+03 -1.55658e+03
  5130    117.362  5.31323e+02 -2.08752e+03 -1.55620e+03
  5140    118.221  5.35214e+02 -2.09141e+03 -1.55620e+03
  5150    119.106  5.39218e+02 -2.09527e+03 -1.55606e+03
  5160    119.793  5.42331e+02 -2.09831e+03 -1.55598e+03
  5170    120.141  5.43906e+02 -2.09984e+03 -1.55594e+03
  5180    120.141  5.43904e+02 -2.09990e+03 -1.55600e+03
  5190    119.896  5.42795e+02 -2.09871e+03 -1.55591e+03
  5200    119.566  5.41303e+02 -2.09724e+03 -1.55593e+03
  5210    119.290  5.40053e+02 -2.09595e+03 -1.55589e+03
  5220    119.123  5.39295e+02 -2.09553e+03 -1.55624e+03
  5230    119.027  5.38860e+02 -2.09508e+03 -1.55622e+03
  5240    118.913  5.38347e+02 -2.09430e+03 -1.55595e+03
  5250    118.706  5.37408e+02 -2.09302e+03 -1.55561e+03
  5260    118.370  5.35890e+02 -2.09180e+03 -1.55591e+03
  5270    117.917  5.33837e+02 -2.08959e+03 -1.55575e+03
  5280    117.397  5.31483e+02 -2.08740e+03 -1.55592e+03
  5290    116.869  5.29091e+02 -2.08513e+03 -1.55604e+03
  5300    116.366  5.26815e+02 -2.08291e+03 -1.55610e+03
  5310    115.910  5.24752e+02 -2.08081e+03 -1.55606e+03
  5320    115.517  5.22969e+02 -2.07911e+03 -1.55614e+03
  5330    115.190  5.21489e+02 -2.07777e+03 -1.55628e+03
  5340    114.924  5.20285e+02 -2.07644e+03 -1.55616e+03
  5350    114.708  5.19308e+02 -2.07536e+03 -1.55606e+03
  5360    114.527  5.18489e+02 -2.07461e+03 -1.55612e+03
  5370    114.356  5.17717e+02 -2.07389e+03 -1.55618e+03
  5380    114.152  5.16794e+02 -2.07313e+03 -1.55634e+03
  5390    113.871  5.15521e+02 -2.07184e+03 -1.55632e+03
  5400    113.499  5.13837e+02 -2.07010e+03 -1.55626e+03
  5410    113.037  5.11745e+02 -2.06810e+03 -1.55636e+03
  5420    112.495  5.09290e+02 -2.06551e+03 -1.55622e+03
  5430    111.947  5.06811e+02 -2.06305e+03 -1.55624e+03
  5440    111.568  5.05095e+02 -2.06123e+03 -1.55614e+03
  5450    111.551  5.05015e+02 -2.06117e+03 -1.55616e+03
  5460    112.004  5.07065e+02 -2.06316e+03 -1.55610e+03
  5470    112.897  5.11112e+02 -2.06729e+03 -1.55618e+03
  5480    114.089  5.16507e+02 -2.07264e+03 -1.55614e+03
  5490    115.392  5.22406e+02 -2.07824e+03 -1.55584e+03
  5500    116.636  5.28038e+02 -2.08397e+03 -1.55594e+03
  5510    117.682  5.32771e+02 -2.08875e+03 -1.55598e+03
  5520    118.416  5.36095e+02 -2.09187e+03 -1.55578e+03
  5530    118.768  5.37687e+02 -2.09344e+03 -1.55576e+03
  5540    118.721  5.37474e+02 -2.09317e+03 -1.55570e+03
  5550    118.312  5.35625e+02 -2.09110e+03 -1.55547e+03
  5560    117.625  5.32513e+02 -2.08825e+03 -1.55573e+03
  5570    116.788  5.28725e+02 -2.08458e+03 -1.55585e+03
  5580    115.973  5.25038e+02 -2.08067e+03 -1.55563e+03
  5590    115.358  5.22252e+02 -2.07805e+03 -1.55579e+03
  5600    115.042  5.20821e+02 -2.07657e+03 -1.55575e+03
  5610    114.986  5.20566e+02 -2.07640e+03 -1.55583e+03
  5620    115.033  5.20779e+02 -2.07667e+03 -1.55590e+03
  5630    115.016  5.20705e+02 -2.07644e+03 -1.55574e+03
  5640    114.824  5.19835e+02 -2.07575e+03 -1.55592e+03
  5650    114.398  5.17904e+02 -2.07384e+03 -1.55594e+03
  5660    113.788  5.15144e+02 -2.07096e+03 -1.55582e+03
  5670    113.200  5.12481e+02 -2.06822e+03 -1.55573e+03
  5680    112.894  5.11098e+02 -2.06691e+03 -1.55581e+03
  5690    113.032  5.11720e+02 -2.06743e+03 -1.55571e+03
  5700    113.568  5.14149e+02 -2.06990e+03 -1.55575e+03
  5710    114.294  5.17434e+02 -2.07291e+03 -1.55547e+03
  5720    114.970  5.20495e+02 -2.07621e+03 -1.55571e+03
  5730    115.463  5.22727e+02 -2.07838e+03 -1.55565e+03
  5740    115.777  5.24148e+02 -2.07986e+03 -1.55571e+03
  5750    115.985  5.25090e+02 -2.08074e+03 -1.55565e+03
  5760    116.147  5.25824e+02 -2.08154e+03 -1.55571e+03
  5770    116.264  5.26356e+02 -2.08227e+03 -1.55591e+03
  5780    116.298  5.26507e+02 -2.08248e+03 -1.55597e+03
  5790    116.222  5.26165e+02 -2.08220e+03 -1.55604e+03
  5800    116.048  5.25377e+02 -2.08129e+03 -1.55591e+03
  5810    115.796  5.24235e+02 -2.08025e+03 -1.55601e+03
  5820    115.460  5.22714e+02 -2.07879e+03 -1.55608e+03
  5830    115.003  5.20644e+02 -2.07678e+03 -1.55614e+03
  5840    114.383  5.17836e+02 -2.07415e+03 -1.55632e+03
  5850    113.594  5.14264e+02 -2.07034e+03 -1.55608e+03
  5860    112.710  5.10264e+02 -2.06652e+03 -1.55626e+03
  5870    111.899  5.06591e+02 -2.06269e+03 -1.55609e+03
  5880    111.395  5.04312e+02 -2.06059e+03 -1.55627e+03
  5890    111.394  5.04307e+02 -2.06050e+03 -1.55619e+03
  5900    111.915  5.06666e+02 -2.06280e+03 -1.55613e+03
  5910    112.774  5.10554e+02 -2.06665e+03 -1.55610e+03
  5920    113.736  5.14909e+02 -2.07127e+03 -1.55636e+03
  5930    114.683  5.19195e+02 -2.07563e+03 -1.55644e+03
  5940    115.594  5.23320e+02 -2.07960e+03 -1.55628e+03
  5950    116.421  5.27066e+02 -2.08332e+03 -1.55626e+03
  5960    117.049  5.29908e+02 -2.08626e+03 -1.55636e+03
  5970    117.353  5.31286e+02 -2.08756e+03 -1.55628e+03
  5980    117.270  5.30909e+02 -2.08700e+03 -1.55610e+03
  5990    116.821  5.28873e+02 -2.08493e+03 -1.55605e+03
  6000    116.122  5.25711e+02 -2.08189e+03 -1.55617e+03
  6010    115.376  5.22334e+02 -2.07821e+03 -1.55587e+03
  6020    114.781  5.19640e+02 -2.07553e+03 -1.55589e+03
  6030    114.421  5.18011e+02 -2.07368e+03 -1.55567e+03
  6040    114.270  5.17326e+02 -2.07300e+03 -1.55567e+03
  6050    114.302  5.17473e+02 -2.07327e+03 -1.55579e+03
  6060    114.568  5.18675e+02 -2.07455e+03 -1.55587e+03
  6070    115.112  5.21136e+02 -2.07697e+03 -1.55583e+03
  6080    115.856  5.24506e+02 -2.08014e+03 -1.55563e+03
  6090    116.594  5.27847e+02 -2.08348e+03 -1.55563e+03
  6100    117.116  5.30212e+02 -2.08599e+03 -1.55577e+03
  6110    117.332  5.31186e+02 -2.08674e+03 -1.55555e+03
  6120    117.270  5.30906e+02 -2.08656e+03 -1.55565e+03
  6130    117.003  5.29699e+02 -2.08519e+03 -1.55549e+03
  6140    116.558  5.27686e+02 -2.08332e+03 -1.55563e+03
  6150    115.906  5.24733e+02 -2.08033e+03 -1.55559e+03
  6160    115.019  5.20717e+02 -2.07629e+03 -1.55557e+03
  6170    113.935  5.15810e+02 -2.07130e+03 -1.55549e+03
  6180    112.808  5.10706e+02 -2.06618e+03 -1.55547e+03
  6190    111.878  5.06497e+02 -2.06181e+03 -1.55531e+03
  6200    111.350  5.04105e+02 -2.05946e+03 -1.55535e+03
  6210    111.290  5.03836e+02 -2.05925e+03 -1.55541e+03
  6220    111.657  5.05494e+02 -2.06084e+03 -1.55535e+03
  6230    112.376  5.08751e+02 -2.06422e+03 -1.55547e+03
  6240    113.362  5.13215e+02 -2.06873e+03 -1.55551e+03
  6250    114.483  5.18290e+02 -2.07400e+03 -1.55571e+03
  6260    115.564  5.23185e+02 -2.07912e+03 -1.55593e+03
  6270    116.454  5.27215e+02 -2.08303e+03 -1.55581e+03
  6280    117.110  5.30185e+02 -2.08608e+03 -1.55589e+03
  6290    117.607  5.32431e+02 -2.08837e+03 -1.55593e+03
  6300    118.025  5.34324e+02 -2.09012e+03 -1.55579e+03
  6310    118.327  5.35692e+02 -2.09169e+03 -1.55599e+03
  6320    118.384  5.35949e+02 -2.09178e+03 -1.55583e+03
  6330    118.079  5.34569e+02 -2.09058e+03 -1.55602e+03
  6340    117.354  5.31289e+02 -2.08728e+03 -1.55600e+03
  6350    116.205  5.26088e+02 -2.08192e+03 -1.55583e+03
  6360    114.704  5.19290e+02 -2.07506e+03 -1.55577e+03
  6370    113.062  5.11855e+02 -2.06765e+03 -1.55579e+03
  6380    111.618  5.05320e+02 -2.06099e+03 -1.55567e+03
  6390    110.708  5.01199e+02 -2.05723e+03 -1.55603e+03
  6400    110.475  5.00147e+02 -2.05616e+03 -1.55601e+03
  6410    110.806  5.01644e+02 -2.05754e+03 -1.55589e+03
  6420    111.408  5.04371e+02 -2.06008e+03 -1.55571e+03
  6430    111.992  5.07011e+02 -2.06269e+03 -1.55567e+03
  6440    112.413  5.08918e+02 -2.06453e+03 -1.55561e+03
  6450    112.705  5.10243e+02 -2.06582e+03 -1.55557e+03
  6460    113.006  5.11605e+02 -2.06724e+03 -1.55563e+03
  6470    113.426  5.13506e+02 -2.06906e+03 -1.55555e+03
  6480    113.988  5.16050e+02 -2.07188e+03 -1.55583e+03
  6490    114.642  5.19009e+02 -2.07488e+03 -1.55587e+03
  6500    115.262  5.21816e+02 -2.07797e+03 -1.55616e+03
  6510    115.681  5.23715e+02 -2.07981e+03 -1.55610e+03
  6520    115.785  5.24183e+02 -2.08008e+03 -1.55589e+03
  6530    115.595  5.23324e+02 -2.07930e+03 -1.55597e+03
  6540    115.250  5.21762e+02 -2.07800e+03 -1.55624e+03
  6550    114.861  5.20004e+02 -2.07640e+03 -1.55640e+03
  6560    114.443  5.18109e+02 -2.07418e+03 -1.55608e+03
  6570    114.017  5.16182e+02 -2.07220e+03 -1.55601e+03
  6580    113.681  5.14658e+02 -2.07059e+03 -1.55593e+03
  6590    113.500  5.13839e+02 -2.06995e+03 -1.55611e+03
  6600    113.441  5.13575e+02 -2.07005e+03 -1.55648e+03
  6610    113.443  5.13582e+02 -2.06996e+03 -1.55638e+03
  6620    113.461  5.13664e+02 -2.07010e+03 -1.55644e+03
  6630    113.451  5.13618e+02 -2.07030e+03 -1.55668e+03
  6640    113.379  5.13293e+02 -2.07011e+03 -1.55682e+03
  6650    113.261  5.12758e+02 -2.06994e+03 -1.55718e+03
  6660    113.144  5.12228e+02 -2.06939e+03 -1.55716e+03
  6670    113.037  5.11743e+02 -2.06908e+03 -1.55734e+03
  6680    112.909  5.11165e+02 -2.06820e+03 -1.55704e+03
  6690    112.764  5.10507e+02 -2.06769e+03 -1.55718e+03
  6700    112.652  5.09999e+02 -2.06700e+03 -1.55700e+03
  6710    112.625  5.09879e+02 -2.06670e+03 -1.55682e+03
  6720    112.705  5.10242e+02 -2.06712e+03 -1.55688e+03
  6730    112.898  5.11114e+02 -2.06833e+03 -1.55722e+03
  6740    113.236  5.12644e+02 -2.06978e+03 -1.55714e+03
  6750    113.772  5.15070e+02 -2.07237e+03 -1.55730e+03
  6760    114.529  5.18500e+02 -2.07582e+03 -1.55732e+03
  6770    115.454  5.22686e+02 -2.08007e+03 -1.55738e+03
  6780    116.413  5.27030e+02 -2.08421e+03 -1.55718e+03
  6790    117.230  5.30726e+02 -2.08795e+03 -1.55722e+03
  6800    117.729  5.32986e+02 -2.09029e+03 -1.55730e+03
  6810    117.793  5.33273e+02 -2.09073e+03 -1.55746e+03
  6820    117.427  5.31621e+02 -2.08900e+03 -1.55738e+03
  6830    116.806  5.28808e+02 -2.08609e+03 -1.55728e+03
  6840    116.205  5.26086e+02 -2.08335e+03 -1.55726e+03
  6850    115.829  5.24383e+02 -2.08170e+03 -1.55732e+03
  6860    115.681  5.23712e+02 -2.08115e+03 -1.55744e+03
  6870    115.619  5.23434e+02 -2.08063e+03 -1.55720e+03
  6880    115.502  5.22905e+02 -2.07994e+03 -1.55704e+03
  6890    115.234  5.21690e+02 -2.07891e+03 -1.55722e+03
  6900    114.731  5.19411e+02 -2.07671e+03 -1.55730e+03
  6910    114.008  5.16139e+02 -2.07328e+03 -1.55714e+03
  6920    113.290  5.12888e+02 -2.07001e+03 -1.55712e+03
  6930    112.889  5.11073e+02 -2.06807e+03 -1.55700e+03
  6940    112.958  5.11387e+02 -2.06816e+03 -1.55678e+03
  6950    113.394  5.13362e+02 -2.07014e+03 -1.55678e+03
  6960    113.951  5.15883e+02 -2.07262e+03 -1.55674e+03
  6970    114.403  5.17926e+02 -2.07487e+03 -1.55694e+03
  6980    114.616  5.18893e+02 -2.07587e+03 -1.55698e+03
  6990    114.564  5.18659e+02 -2.07544e+03 -1.55678e+03
  7000    114.319  5.17547e+02 -2.07433e+03 -1.55678e+03
  7010    114.021  5.16197e+02 -2.07291e+03 -1.55672e+03
  7020    113.805  5.15219e+02 -2.07192e+03 -1.55670e+03
  7030    113.719  5.14830e+02 -2.07157e+03 -1.55674e+03
  7040    113.718  5.14828e+02 -2.07153e+03 -1.55670e+03
  7050    113.747  5.14957e+02 -2.07180e+03 -1.55684e+03
  7060    113.776  5.15089e+02 -2.07209e+03 -1.55700e+03
  7070    113.776  5.15091e+02 -2.07199e+03 -1.55690e+03
  7080    113.680  5.14655e+02 -2.07135e+03 -1.55670e+03
  7090    113.410  5.13432e+02 -2.07035e+03 -1.55692e+03
  7100    112.952  5.11357e+02 -2.06844e+03 -1.55708e+03
  7110    112.407  5.08893e+02 -2.06607e+03 -1.55718e+03
  7120    111.958  5.06858e+02 -2.06404e+03 -1.55718e+03
  7130    111.755  5.05940e+02 -2.06290e+03 -1.55696e+03
  7140    111.831  5.06282e+02 -2.06328e+03 -1.55700e+03
  7150    112.116  5.07573e+02 -2.06465e+03 -1.55708e+03
  7160    112.528  5.09437e+02 -2.06674e+03 -1.55730e+03
  7170    113.012  5.11632e+02 -2.06877e+03 -1.55714e+03
  7180    113.531  5.13980e+02 -2.07114e+03 -1.55716e+03
  7190    114.041  5.16287e+02 -2.07355e+03 -1.55726e+03
  7200    114.478  5.18269e+02 -2.07523e+03 -1.55696e+03
  7210    114.789  5.19677e+02 -2.07660e+03 -1.55692e+03
  7220    114.985  5.20561e+02 -2.07748e+03 -1.55692e+03
  7230    115.214  5.21598e+02 -2.07862e+03 -1.55702e+03
  7240    115.718  5.23883e+02 -2.08092e+03 -1.55704e+03
  7250    116.621  5.27971e+02 -2.08491e+03 -1.55694e+03
  7260    117.756  5.33109e+02 -2.08995e+03 -1.55684e+03
  7270    118.772  5.37706e+02 -2.09440e+03 -1.55670e+03
  7280    119.352  5.40333e+02 -2.09685e+03 -1.55652e+03
  7290    119.329  5.40228e+02 -2.09679e+03 -1.55656e+03
  7300    118.676  5.37273e+02 -2.09349e+03 -1.55622e+03
  7310    117.463  5.31781e+02 -2.08794e+03 -1.55616e+03
  7320    115.812  5.24306e+02 -2.08074e+03 -1.55644e+03
  7330    113.878  5.15553e+02 -2.07213e+03 -1.55658e+03
  7340    111.851  5.06375e+02 -2.06279e+03 -1.55642e+03
  7350    109.962  4.97822e+02 -2.05432e+03 -1.55650e+03
  7360    108.491  4.91164e+02 -2.04772e+03 -1.55656e+03
  7370    107.697  4.87569e+02 -2.04406e+03 -1.55649e+03
  7380    107.722  4.87684e+02 -2.04412e+03 -1.55643e+03
  7390    108.567  4.91507e+02 -2.04794e+03 -1.55643e+03
  7400    110.119  4.98534e+02 -2.05519e+03 -1.55666e+03
  7410    112.166  5.07799e+02 -2.06429e+03 -1.55650e+03
  7420    114.417  5.17989e+02 -2.07463e+03 -1.55664e+03
  7430    116.578  5.27773e+02 -2.08429e+03 -1.55652e+03
  7440    118.414  5.36088e+02 -2.09277e+03 -1.55668e+03
  7450    119.772  5.42233e+02 -2.09891e+03 -1.55668e+03
  7460    120.556  5.45786e+02 -2.10265e+03 -1.55686e+03
  7470    120.714  5.46501e+02 -2.10382e+03 -1.55732e+03
  7480    120.280  5.44537e+02 -2.10180e+03 -1.55726e+03
  7490    119.501  5.41007e+02 -2.09817e+03 -1.55716e+03
  7500    118.834  5.37989e+02 -2.09519e+03 -1.55720e+03
  7510    118.608  5.36963e+02 -2.09404e+03 -1.55708e+03
  7520    118.769  5.37696e+02 -2.09467e+03 -1.55698e+03
  7530    119.089  5.39142e+02 -2.09592e+03 -1.55678e+03
  7540    119.358  5.40362e+02 -2.09730e+03 -1.55694e+03
  7550    119.424  5.40659e+02 -2.09776e+03 -1.55710e+03
  7560    119.202  5.39653e+02 -2.09669e+03 -1.55704e+03
  7570    118.679  5.37285e+02 -2.09427e+03 -1.55698e+03
  7580    117.872  5.33632e+02 -2.09051e+03 -1.55688e+03
  7590    116.819  5.28865e+02 -2.08576e+03 -1.55690e+03
  7600    115.655  5.23597e+02 -2.08045e+03 -1.55686e+03
  7610    114.620  5.18909e+02 -2.07603e+03 -1.55712e+03
  7620    113.952  5.15886e+02 -2.07294e+03 -1.55706e+03
  7630    113.784  5.15127e+02 -2.07204e+03 -1.55692e+03
  7640    114.097  5.16542e+02 -2.07320e+03 -1.55666e+03
  7650    114.745  5.19475e+02 -2.07621e+03 -1.55674e+03
  7660    115.548  5.23111e+02 -2.08001e+03 -1.55690e+03
  7670    116.400  5.26971e+02 -2.08387e+03 -1.55690e+03
  7680    117.246  5.30801e+02 -2.08806e+03 -1.55726e+03
  7690    117.961  5.34034e+02 -2.09150e+03 -1.55746e+03
  7700    118.343  5.35767e+02 -2.09305e+03 -1.55728e+03
  7710    118.242  5.35307e+02 -2.09255e+03 -1.55724e+03
  7720    117.632  5.32546e+02 -2.08979e+03 -1.55724e+03
  7730    116.683  5.28249e+02 -2.08555e+03 -1.55730e+03
  7740    115.738  5.23971e+02 -2.08117e+03 -1.55720e+03
  7750    115.088  5.21030e+02 -2.07831e+03 -1.55728e+03
  7760    114.814  5.19790e+02 -2.07717e+03 -1.55738e+03
  7770    114.952  5.20415e+02 -2.07789e+03 -1.55748e+03
  7780    115.601  5.23352e+02 -2.08105e+03 -1.55770e+03
  7790    116.758  5.28591e+02 -2.08611e+03 -1.55752e+03
  7800    118.192  5.35081e+02 -2.09284e+03 -1.55776e+03
  7810    119.573  5.41336e+02 -2.09958e+03 -1.55824e+03
  7820    120.687  5.46379e+02 -2.10476e+03 -1.55839e+03
  7830    121.475  5.49944e+02 -2.10833e+03 -1.55838e+03
  7840    121.938  5.52043e+02 -2.11005e+03 -1.55800e+03
  7850    122.058  5.52583e+02 -2.11057e+03 -1.55798e+03
  7860    121.833  5.51566e+02 -2.10959e+03 -1.55802e+03
  7870    121.382  5.49524e+02 -2.10751e+03 -1.55798e+03
  7880    120.931  5.47482e+02 -2.10542e+03 -1.55794e+03
  7890    120.673  5.46316e+02 -2.10438e+03 -1.55806e+03
  7900    120.632  5.46129e+02 -2.10439e+03 -1.55826e+03
  7910    120.673  5.46316e+02 -2.10448e+03 -1.55816e+03
  7920    120.644  5.46181e+02 -2.10448e+03 -1.55830e+03
  7930    120.462  5.45359e+02 -2.10336e+03 -1.55800e+03
  7940    120.102  5.43727e+02 -2.10171e+03 -1.55798e+03
  7950    119.548  5.41220e+02 -2.09928e+03 -1.55806e+03
  7960    118.777  5.37729e+02 -2.09591e+03 -1.55818e+03
  7970    117.769  5.33167e+02 -2.09125e+03 -1.55808e+03
  7980    116.573  5.27750e+02 -2.08557e+03 -1.55782e+03
  7990    115.377  5.22337e+02 -2.08018e+03 -1.55784e+03
  8000    114.517  5.18446e+02 -2.07608e+03 -1.55764e+03
  8010    114.344  5.17659e+02 -2.07546e+03 -1.55780e+03
  8020    114.977  5.20528e+02 -2.07815e+03 -1.55762e+03
  8030    116.154  5.25857e+02 -2.08325e+03 -1.55740e+03
  8040    117.415  5.31563e+02 -2.08920e+03 -1.55764e+03
  8050    118.427  5.36146e+02 -2.09417e+03 -1.55802e+03
  8060    119.091  5.39153e+02 -2.09739e+03 -1.55824e+03
  8070    119.430  5.40687e+02 -2.09889e+03 -1.55820e+03
  8080    119.475  5.40890e+02 -2.09889e+03 -1.55800e+03
  8090    119.238  5.39818e+02 -2.09778e+03 -1.55796e+03
  8100    118.764  5.37673e+02 -2.09547e+03 -1.55780e+03
  8110    118.164  5.34956e+02 -2.09245e+03 -1.55750e+03
  8120    117.574  5.32283e+02 -2.08974e+03 -1.55746e+03
  8130    117.066  5.29986e+02 -2.08728e+03 -1.55730e+03
  8140    116.643  5.28068e+02 -2.08545e+03 -1.55738e+03
  8150    116.290  5.26473e+02 -2.08401e+03 -1.55754e+03
  8160    115.997  5.25147e+02 -2.08255e+03 -1.55740e+03
  8170    115.731  5.23942e+02 -2.08122e+03 -1.55728e+03
  8180    115.457  5.22699e+02 -2.07992e+03 -1.55722e+03
  8190    115.194  5.21507e+02 -2.07883e+03 -1.55732e+03
  8200    115.040  5.20812e+02 -2.07827e+03 -1.55746e+03
  8210    115.139  5.21261e+02 -2.07874e+03 -1.55748e+03
  8220    115.583  5.23269e+02 -2.08057e+03 -1.55730e+03
  8230    116.352  5.26753e+02 -2.08407e+03 -1.55732e+03
  8240    117.322  5.31141e+02 -2.08862e+03 -1.55748e+03
  8250    118.324  5.35679e+02 -2.09324e+03 -1.55756e+03
  8260    119.250  5.39873e+02 -2.09759e+03 -1.55772e+03
  8270    120.088  5.43665e+02 -2.10117e+03 -1.55750e+03
  8280    120.880  5.47250e+02 -2.10473e+03 -1.55748e+03
  8290    121.634  5.50664e+02 -2.10806e+03 -1.55740e+03
  8300    122.268  5.53535e+02 -2.11102e+03 -1.55748e+03
  8310    122.666  5.55337e+02 -2.11284e+03 -1.55750e+03
  8320    122.778  5.55842e+02 -2.11338e+03 -1.55754e+03
  8330    122.652  5.55272e+02 -2.11271e+03 -1.55744e+03
  8340    122.364  5.53968e+02 -2.11141e+03 -1.55744e+03
  8350    121.936  5.52031e+02 -2.10943e+03 -1.55740e+03
  8360    121.360  5.49424e+02 -2.10662e+03 -1.55720e+03
  8370    120.672  5.46307e+02 -2.10369e+03 -1.55738e+03
  8380    119.939  5.42991e+02 -2.10059e+03 -1.55760e+03
  8390    119.203  5.39657e+02 -2.09730e+03 -1.55764e+03
  8400    118.468  5.36333e+02 -2.09411e+03 -1.55778e+03
  8410    117.753  5.33094e+02 -2.09098e+03 -1.55788e+03
  8420    117.070  5.30001e+02 -2.08770e+03 -1.55770e+03
  8430    116.316  5.26587e+02 -2.08411e+03 -1.55752e+03
  8440    115.308  5.22025e+02 -2.07941e+03 -1.55738e+03
  8450    114.064  5.16395e+02 -2.07379e+03 -1.55740e+03
  8460    112.903  5.11136e+02 -2.06839e+03 -1.55726e+03
  8470    112.157  5.07759e+02 -2.06514e+03 -1.55738e+03
  8480    111.906  5.06622e+02 -2.06378e+03 -1.55716e+03
  8490    112.034  5.07203e+02 -2.06452e+03 -1.55732e+03
  8500    112.404  5.08876e+02 -2.06636e+03 -1.55748e+03
  8510    112.954  5.11367e+02 -2.06911e+03 -1.55774e+03
  8520    113.695  5.14723e+02 -2.07250e+03 -1.55778e+03
  8530    114.607  5.18853e+02 -2.07665e+03 -1.55780e+03
  8540    115.587  5.23290e+02 -2.08091e+03 -1.55762e+03
  8550    116.495  5.27397e+02 -2.08492e+03 -1.55752e+03
  8560    117.230  5.30726e+02 -2.08815e+03 -1.55742e+03
  8570    117.797  5.33295e+02 -2.09067e+03 -1.55738e+03
  8580    118.302  5.35582e+02 -2.09280e+03 -1.55722e+03
  8590    118.850  5.38062e+02 -2.09514e+03 -1.55708e+03
  8600    119.428  5.40679e+02 -2.09788e+03 -1.55720e+03
  8610    119.941  5.42999e+02 -2.10038e+03 -1.55738e+03
  8620    120.372  5.44950e+02 -2.10231e+03 -1.55736e+03
  8630    120.787  5.46828e+02 -2.10435e+03 -1.55752e+03
  8640    121.102  5.48254e+02 -2.10589e+03 -1.55764e+03
  8650    121.054  5.48038e+02 -2.10580e+03 -1.55776e+03
  8660    120.493  5.45497e+02 -2.10320e+03 -1.55770e+03
  8670    119.526  5.41119e+02 -2.09866e+03 -1.55754e+03
  8680    118.405  5.36046e+02 -2.09352e+03 -1.55748e+03
  8690    117.354  5.31287e+02 -2.08866e+03 -1.55738e+03
  8700    116.492  5.27387e+02 -2.08491e+03 -1.55752e+03
  8710    115.859  5.24518e+02 -2.08186e+03 -1.55734e+03
  8720    115.429  5.22572e+02 -2.07999e+03 -1.55742e+03
  8730    115.107  5.21117e+02 -2.07888e+03 -1.55776e+03
  8740    114.745  5.19476e+02 -2.07716e+03 -1.55768e+03
  8750    114.216  5.17080e+02 -2.07474e+03 -1.55766e+03
  8760    113.509  5.13882e+02 -2.07166e+03 -1.55778e+03
  8770    112.755  5.10469e+02 -2.06827e+03 -1.55780e+03
  8780    112.160  5.07772e+02 -2.06533e+03 -1.55756e+03
  8790    111.910  5.06642e+02 -2.06414e+03 -1.55750e+03
  8800    112.078  5.07402e+02 -2.06466e+03 -1.55726e+03
  8810    112.551  5.09544e+02 -2.06684e+03 -1.55730e+03
  8820    113.101  5.12033e+02 -2.06933e+03 -1.55730e+03
  8830    113.570  5.14155e+02 -2.07149e+03 -1.55734e+03
  8840    113.992  5.16065e+02 -2.07356e+03 -1.55750e+03
  8850    114.529  5.18497e+02 -2.07606e+03 -1.55756e+03
  8860    115.327  5.22111e+02 -2.07965e+03 -1.55754e+03
  8870    116.428  5.27095e+02 -2.08494e+03 -1.55784e+03
  8880    117.753  5.33094e+02 -2.09091e+03 -1.55782e+03
  8890    119.073  5.39069e+02 -2.09667e+03 -1.55760e+03
  8900    120.029  5.43400e+02 -2.10098e+03 -1.55758e+03
  8910    120.266  5.44471e+02 -2.10193e+03 -1.55746e+03
  8920    119.608  5.41491e+02 -2.09885e+03 -1.55736e+03
  8930    118.193  5.35088e+02 -2.09253e+03 -1.55744e+03
  8940    116.477  5.27318e+02 -2.08478e+03 -1.55746e+03
  8950    115.060  5.20903e+02 -2.07820e+03 -1.55730e+03
  8960    114.404  5.17932e+02 -2.07521e+03 -1.55728e+03
  8970    114.598  5.18809e+02 -2.07613e+03 -1.55732e+03
  8980    115.372  5.22314e+02 -2.07971e+03 -1.55740e+03
  8990    116.343  5.26711e+02 -2.08435e+03 -1.55764e+03
  9000    117.253  5.30832e+02 -2.08845e+03 -1.55762e+03
  9010    118.016  5.34286e+02 -2.09195e+03 -1.55766e+03
  9020    118.600  5.36928e+02 -2.09467e+03 -1.55774e+03
  9030    118.943  5.38480e+02 -2.09602e+03 -1.55754e+03
  9040    119.003  5.38753e+02 -2.09617e+03 -1.55742e+03
  9050    118.877  5.38184e+02 -2.09562e+03 -1.55744e+03
  9060    118.807  5.37864e+02 -2.09544e+03 -1.55758e+03
  9070    119.028  5.38864e+02 -2.09630e+03 -1.55744e+03
  9080    119.588  5.41401e+02 -2.09890e+03 -1.55750e+03
  9090    120.289  5.44576e+02 -2.10200e+03 -1.55742e+03
  9100    120.803  5.46903e+02 -2.10430e+03 -1.55740e+03
  9110    120.882  5.47258e+02 -2.10478e+03 -1.55752e+03
  9120    120.512  5.45583e+02 -2.10335e+03 -1.55776e+03
  9130    119.900  5.42814e+02 -2.10033e+03 -1.55752e+03
  9140    119.305  5.40121e+02 -2.09748e+03 -1.55736e+03
  9150    118.865  5.38130e+02 -2.09539e+03 -1.55726e+03
  9160    118.540  5.36658e+02 -2.09416e+03 -1.55750e+03
  9170    118.160  5.34936e+02 -2.09224e+03 -1.55730e+03
  9180    117.541  5.32134e+02 -2.08911e+03 -1.55698e+03
  9190    116.590  5.27831e+02 -2.08495e+03 -1.55712e+03
  9200    115.351  5.22222e+02 -2.07948e+03 -1.55726e+03
  9210    113.980  5.16011e+02 -2.07323e+03 -1.55722e+03
  9220    112.681  5.10131e+02 -2.06757e+03 -1.55744e+03
  9230    111.653  5.05479e+02 -2.06264e+03 -1.55716e+03
  9240    111.061  5.02800e+02 -2.06008e+03 -1.55728e+03
  9250    110.996  5.02503e+02 -2.05976e+03 -1.55726e+03
  9260    111.363  5.04167e+02 -2.06153e+03 -1.55736e+03
  9270    111.865  5.06438e+02 -2.06406e+03 -1.55762e+03
  9280    112.173  5.07831e+02 -2.06553e+03 -1.55770e+03
  9290    112.125  5.07617e+02 -2.06520e+03 -1.55758e+03
  9300    111.791  5.06104e+02 -2.06393e+03 -1.55782e+03
  9310    111.399  5.04327e+02 -2.06201e+03 -1.55768e+03
  9320    111.212  5.03481e+02 -2.06090e+03 -1.55742e+03
  9330    111.409  5.04372e+02 -2.06187e+03 -1.55750e+03
  9340    111.992  5.07014e+02 -2.06437e+03 -1.55736e+03
  9350    112.776  5.10562e+02 -2.06822e+03 -1.55766e+03
  9360    113.484  5.13767e+02 -2.07147e+03 -1.55770e+03
  9370    113.915  5.15721e+02 -2.07356e+03 -1.55784e+03
  9380    114.056  5.16359e+02 -2.07398e+03 -1.55762e+03
  9390    114.060  5.16373e+02 -2.07391e+03 -1.55754e+03
  9400    114.113  5.16616e+02 -2.07412e+03 -1.55750e+03
  9410    114.335  5.17621e+02 -2.07524e+03 -1.55762e+03
  9420    114.733  5.19423e+02 -2.07728e+03 -1.55786e+03
  9430    115.215  5.21606e+02 -2.07933e+03 -1.55772e+03
  9440    115.637  5.23515e+02 -2.08106e+03 -1.55754e+03
  9450    115.864  5.24543e+02 -2.08194e+03 -1.55740e+03
  9460    115.848  5.24470e+02 -2.08191e+03 -1.55744e+03
  9470    115.692  5.23765e+02 -2.08126e+03 -1.55750e+03
  9480    115.629  5.23480e+02 -2.08066e+03 -1.55718e+03
  9490    115.901  5.24711e+02 -2.08145e+03 -1.55673e+03
  9500    116.592  5.27840e+02 -2.08462e+03 -1.55678e+03
  9510    117.555  5.32197e+02 -2.08905e+03 -1.55686e+03
  9520    118.509  5.36515e+02 -2.09367e+03 -1.55716e+03
  9530    119.218  5.39725e+02 -2.09708e+03 -1.55736e+03
  9540    119.593  5.41424e+02 -2.09928e+03 -1.55786e+03
  9550    119.680  5.41818e+02 -2.09966e+03 -1.55784e+03
  9560    119.608  5.41491e+02 -2.09933e+03 -1.55784e+03
  9570    119.539  5.41179e+02 -2.09934e+03 -1.55816e+03
  9580    119.624  5.41564e+02 -2.09986e+03 -1.55830e+03
  9590    119.957  5.43073e+02 -2.10123e+03 -1.55816e+03
  9600    120.554  5.45777e+02 -2.10382e+03 -1.55804e+03
  9610    121.384  5.49531e+02 -2.10759e+03 -1.55806e+03
  9620    122.405  5.54154e+02 -2.11241e+03 -1.55826e+03
  9630    123.552  5.59346e+02 -2.11767e+03 -1.55832e+03
  9640    124.695  5.64522e+02 -2.12278e+03 -1.55826e+03
  9650    125.631  5.68762e+02 -2.12676e+03 -1.55800e+03
  9660    126.131  5.71022e+02 -2.12912e+03 -1.55810e+03
  9670    126.006  5.70456e+02 -2.12832e+03 -1.55786e+03
  9680    125.177  5.66704e+02 -2.12422e+03 -1.55752e+03
  9690    123.730  5.60153e+02 -2.11753e+03 -1.55738e+03
  9700    121.927  5.51991e+02 -2.10933e+03 -1.55734e+03
  9710    120.151  5.43952e+02 -2.10143e+03 -1.55748e+03
  9720    118.777  5.37730e+02 -2.09521e+03 -1.55748e+03
  9730    118.038  5.34385e+02 -2.09184e+03 -1.55746e+03
  9740    117.941  5.33946e+02 -2.09148e+03 -1.55754e+03
  9750    118.298  5.35564e+02 -2.09306e+03 -1.55750e+03
  9760    118.857  5.38093e+02 -2.09539e+03 -1.55730e+03
  9770    119.388  5.40496e+02 -2.09749e+03 -1.55700e+03
  9780    119.723  5.42014e+02 -2.09911e+03 -1.55710e+03
  9790    119.792  5.42326e+02 -2.09949e+03 -1.55716e+03
  9800    119.650  5.41680e+02 -2.09882e+03 -1.55714e+03
  9810    119.431  5.40692e+02 -2.09787e+03 -1.55718e+03
  9820    119.256  5.39897e+02 -2.09724e+03 -1.55734e+03
  9830    119.167  5.39496e+02 -2.09671e+03 -1.55722e+03
  9840    119.118  5.39272e+02 -2.09637e+03 -1.55710e+03
  9850    119.004  5.38760e+02 -2.09586e+03 -1.55710e+03
  9860    118.743  5.37576e+02 -2.09465e+03 -1.55708e+03
  9870    118.344  5.35769e+02 -2.09277e+03 -1.55700e+03
  9880    117.900  5.33761e+02 -2.09056e+03 -1.55680e+03
  9890    117.517  5.32028e+02 -2.08866e+03 -1.55664e+03
  9900    117.245  5.30796e+02 -2.08763e+03 -1.55684e+03
  9910    117.079  5.30043e+02 -2.08674e+03 -1.55670e+03
  9920    116.999  5.29679e+02 -2.08623e+03 -1.55656e+03
  9930    117.002  5.29693e+02 -2.08631e+03 -1.55662e+03
  9940    117.098  5.30130e+02 -2.08719e+03 -1.55706e+03
  9950    117.274  5.30927e+02 -2.08815e+03 -1.55722e+03
  9960    117.473  5.31828e+02 -2.08917e+03 -1.55734e+03
  9970    117.641  5.32589e+02 -2.09029e+03 -1.55770e+03
  9980    117.830  5.33442e+02 -2.09136e+03 -1.55792e+03
  9990    118.210  5.35163e+02 -2.09306e+03 -1.55790e+03
