Step    T(K)      KE(kJ)        PE(kJ)       TotE(kJ)
     0      0.153  6.92845e-01 -1.63103e+03 -1.63034e+03
    10      0.489  2.21233e+00 -1.63255e+03 -1.63034e+03
    20      1.352  6.11914e+00 -1.63646e+03 -1.63034e+03
    30      2.671  1.20904e+01 -1.64243e+03 -1.63034e+03
    40      4.347  1.96803e+01 -1.65002e+03 -1.63034e+03
    50      6.275  2.84085e+01 -1.65875e+03 -1.63034e+03
    60      8.358  3.78366e+01 -1.66818e+03 -1.63034e+03
    70     10.518  4.76171e+01 -1.67788e+03 -1.63026e+03
    80     12.703  5.75090e+01 -1.68769e+03 -1.63018e+03
    90     14.881  6.73716e+01 -1.69653e+03 -1.62916e+03
   100     17.036  7.71260e+01 -1.70592e+03 -1.62880e+03
   110     19.159  8.67376e+01 -1.71286e+03 -1.62613e+03
   120     21.255  9.62271e+01 -1.71693e+03 -1.62071e+03
   130     23.316  1.05555e+02 -1.72510e+03 -1.61954e+03
   140     25.325  1.14654e+02 -1.73381e+03 -1.61916e+03
   150     27.275  1.23482e+02 -1.74184e+03 -1.61836e+03
   160     29.156  1.31994e+02 -1.74862e+03 -1.61663e+03
   170     30.952  1.40128e+02 -1.75533e+03 -1.61520e+03
   180     32.646  1.47794e+02 -1.76203e+03 -1.61424e+03
   190     34.220  1.54921e+02 -1.76659e+03 -1.61167e+03
   200     35.662  1.61450e+02 -1.77067e+03 -1.60922e+03
   210     36.955  1.67303e+02 -1.77502e+03 -1.60771e+03
   220     38.088  1.72433e+02 -1.77898e+03 -1.60655e+03
   230     39.057  1.76819e+02 -1.78204e+03 -1.60522e+03
   240     39.863  1.80469e+02 -1.78425e+03 -1.60378e+03
   250     40.514  1.83418e+02 -1.78555e+03 -1.60213e+03
   260     41.023  1.85721e+02 -1.78627e+03 -1.60055e+03
   270     41.404  1.87445e+02 -1.78645e+03 -1.59900e+03
   280     41.673  1.88661e+02 -1.78575e+03 -1.59709e+03
   290     41.844  1.89436e+02 -1.78476e+03 -1.59533e+03
   300     41.929  1.89823e+02 -1.78352e+03 -1.59370e+03
   310     41.940  1.89872e+02 -1.78154e+03 -1.59167e+03
   320     41.885  1.89622e+02 -1.77961e+03 -1.58999e+03
   330     41.766  1.89086e+02 -1.77734e+03 -1.58826e+03
   340     41.589  1.88285e+02 -1.77490e+03 -1.58661e+03
   350     41.362  1.87254e+02 -1.77222e+03 -1.58497e+03
   360     41.103  1.86081e+02 -1.76968e+03 -1.58360e+03
   370     40.851  1.84940e+02 -1.76718e+03 -1.58224e+03
   380     40.671  1.84126e+02 -1.76528e+03 -1.58115e+03
   390     40.646  1.84013e+02 -1.76432e+03 -1.58031e+03
   400     40.851  1.84942e+02 -1.76400e+03 -1.57906e+03
   410     41.327  1.87096e+02 -1.76521e+03 -1.57812e+03
   420     42.070  1.90460e+02 -1.76753e+03 -1.57707e+03
   430     43.054  1.94915e+02 -1.77101e+03 -1.57609e+03
   440     44.256  2.00357e+02 -1.77587e+03 -1.57551e+03
   450     45.671  2.06761e+02 -1.78185e+03 -1.57509e+03
   460     47.311  2.14187e+02 -1.78887e+03 -1.57469e+03
   470     49.199  2.22734e+02 -1.79706e+03 -1.57432e+03
   480     51.363  2.32533e+02 -1.80652e+03 -1.57398e+03
   490     53.850  2.43790e+02 -1.81723e+03 -1.57344e+03
   500     56.729  2.56826e+02 -1.82986e+03 -1.57304e+03
   510     60.083  2.72007e+02 -1.84501e+03 -1.57300e+03
   520     63.957  2.89548e+02 -1.86243e+03 -1.57288e+03
   530     68.326  3.09328e+02 -1.88197e+03 -1.57264e+03
   540     73.097  3.30928e+02 -1.90365e+03 -1.57272e+03
   550     78.164  3.53864e+02 -1.92644e+03 -1.57258e+03
   560     83.462  3.77851e+02 -1.95047e+03 -1.57262e+03
   570     88.998  4.02912e+02 -1.97541e+03 -1.57250e+03
   580     94.811  4.29233e+02 -2.00161e+03 -1.57238e+03
   590    100.895  4.56773e+02 -2.02931e+03 -1.57254e+03
   600    107.141  4.85052e+02 -2.05741e+03 -1.57236e+03
   610    113.375  5.13273e+02 -2.08601e+03 -1.57274e+03
   620    119.411  5.40601e+02 -2.11320e+03 -1.57260e+03
   630    125.105  5.66377e+02 -2.13880e+03 -1.57242e+03
   640    130.376  5.90240e+02 -2.16258e+03 -1.57234e+03
   650    135.194  6.12053e+02 -2.18433e+03 -1.57228e+03
   660    139.534  6.31703e+02 -2.20346e+03 -1.57176e+03
   670    143.330  6.48886e+02 -2.22038e+03 -1.57150e+03
   680    146.483  6.63159e+02 -2.23412e+03 -1.57096e+03
   690    148.874  6.73988e+02 -2.24450e+03 -1.57052e+03
   700    150.394  6.80867e+02 -2.25090e+03 -1.57003e+03
   710    150.994  6.83586e+02 -2.25298e+03 -1.56939e+03
   720    150.754  6.82495e+02 -2.25108e+03 -1.56859e+03
   730    149.872  6.78505e+02 -2.24677e+03 -1.56827e+03
   740    148.598  6.72735e+02 -2.24062e+03 -1.56788e+03
   750    147.149  6.66177e+02 -2.23362e+03 -1.56744e+03
   760    145.696  6.59597e+02 -2.22680e+03 -1.56720e+03
   770    144.393  6.53699e+02 -2.22062e+03 -1.56692e+03
   780    143.374  6.49085e+02 -2.21588e+03 -1.56680e+03
   790    142.693  6.46005e+02 -2.21216e+03 -1.56616e+03
   800    142.323  6.44327e+02 -2.21024e+03 -1.56592e+03
   810    142.221  6.43866e+02 -2.20942e+03 -1.56555e+03
   820    142.331  6.44362e+02 -2.20970e+03 -1.56533e+03
   830    142.477  6.45024e+02 -2.21020e+03 -1.56517e+03
   840    142.330  6.44361e+02 -2.20924e+03 -1.56487e+03
   850    141.626  6.41173e+02 -2.20579e+03 -1.56461e+03
   860    140.473  6.35953e+02 -2.20024e+03 -1.56429e+03
   870    139.287  6.30582e+02 -2.19465e+03 -1.56407e+03
   880    138.249  6.25882e+02 -2.18983e+03 -1.56395e+03
   890    137.132  6.20826e+02 -2.18462e+03 -1.56379e+03
   900    135.776  6.14689e+02 -2.17864e+03 -1.56395e+03
   910    134.429  6.08589e+02 -2.17250e+03 -1.56391e+03
   920    133.564  6.04673e+02 -2.16816e+03 -1.56349e+03
   930    133.442  6.04120e+02 -2.16751e+03 -1.56339e+03
   940    133.917  6.06273e+02 -2.16952e+03 -1.56325e+03
   950    134.608  6.09403e+02 -2.17257e+03 -1.56317e+03
   960    135.143  6.11824e+02 -2.17485e+03 -1.56303e+03
   970    135.344  6.12733e+02 -2.17554e+03 -1.56281e+03
   980    135.294  6.12507e+02 -2.17559e+03 -1.56309e+03
   990    135.211  6.12130e+02 -2.17504e+03 -1.56291e+03
  1000    135.197  6.12066e+02 -2.17467e+03 -1.56260e+03
  1010    135.070  6.11490e+02 -2.17392e+03 -1.56242e+03
  1020    134.524  6.09020e+02 -2.17114e+03 -1.56212e+03
  1030    133.448  6.04149e+02 -2.16603e+03 -1.56188e+03
  1040    132.064  5.97886e+02 -2.15957e+03 -1.56168e+03
  1050    130.792  5.92125e+02 -2.15346e+03 -1.56134e+03
  1060    129.963  5.88373e+02 -2.14977e+03 -1.56140e+03
  1070    129.602  5.86738e+02 -2.14820e+03 -1.56146e+03
  1080    129.453  5.86062e+02 -2.14716e+03 -1.56110e+03
  1090    129.265  5.85211e+02 -2.14607e+03 -1.56086e+03
  1100    128.972  5.83885e+02 -2.14458e+03 -1.56070e+03
  1110    128.565  5.82043e+02 -2.14258e+03 -1.56054e+03
  1120    127.996  5.79465e+02 -2.13972e+03 -1.56026e+03
  1130    127.291  5.76273e+02 -2.13665e+03 -1.56038e+03
  1140    126.592  5.73111e+02 -2.13335e+03 -1.56023e+03
  1150    126.009  5.70473e+02 -2.13065e+03 -1.56017e+03
  1160    125.510  5.68212e+02 -2.12829e+03 -1.56007e+03
  1170    124.949  5.65671e+02 -2.12561e+03 -1.55993e+03
  1180    124.206  5.62307e+02 -2.12212e+03 -1.55981e+03
  1190    123.298  5.58196e+02 -2.11769e+03 -1.55949e+03
  1200    122.376  5.54024e+02 -2.11382e+03 -1.55979e+03
  1210    121.619  5.50595e+02 -2.11055e+03 -1.55995e+03
  1220    121.153  5.48489e+02 -2.10838e+03 -1.55989e+03
  1230    121.054  5.48037e+02 -2.10781e+03 -1.55977e+03
  1240    121.284  5.49079e+02 -2.10861e+03 -1.55953e+03
  1250    121.673  5.50841e+02 -2.11017e+03 -1.55933e+03
  1260    122.030  5.52459e+02 -2.11179e+03 -1.55933e+03
  1270    122.243  5.53421e+02 -2.11265e+03 -1.55923e+03
  1280    122.283  5.53603e+02 -2.11281e+03 -1.55921e+03
  1290    122.190  5.53183e+02 -2.11233e+03 -1.55915e+03
  1300    122.035  5.52479e+02 -2.11127e+03 -1.55879e+03
  1310    121.907  5.51900e+02 -2.11085e+03 -1.55895e+03
  1320    121.943  5.52063e+02 -2.11109e+03 -1.55903e+03
  1330    122.305  5.53701e+02 -2.11265e+03 -1.55895e+03
  1340    123.036  5.57010e+02 -2.11616e+03 -1.55915e+03
  1350    123.917  5.61001e+02 -2.12021e+03 -1.55921e+03
  1360    124.624  5.64202e+02 -2.12339e+03 -1.55919e+03
  1370    124.994  5.65877e+02 -2.12499e+03 -1.55911e+03
  1380    125.041  5.66091e+02 -2.12510e+03 -1.55901e+03
  1390    124.805  5.65020e+02 -2.12387e+03 -1.55885e+03
  1400    124.251  5.62512e+02 -2.12146e+03 -1.55895e+03
  1410    123.324  5.58315e+02 -2.11743e+03 -1.55911e+03
  1420    122.074  5.52658e+02 -2.11187e+03 -1.55921e+03
  1430    120.728  5.46563e+02 -2.10589e+03 -1.55933e+03
  1440    119.577  5.41352e+02 -2.10072e+03 -1.55937e+03
  1450    118.816  5.37906e+02 -2.09734e+03 -1.55943e+03
  1460    118.520  5.36568e+02 -2.09570e+03 -1.55913e+03
  1470    118.736  5.37543e+02 -2.09675e+03 -1.55921e+03
  1480    119.489  5.40952e+02 -2.10034e+03 -1.55939e+03
  1490    120.697  5.46421e+02 -2.10587e+03 -1.55945e+03
  1500    122.109  5.52816e+02 -2.11223e+03 -1.55941e+03
  1510    123.408  5.58697e+02 -2.11805e+03 -1.55935e+03
  1520    124.394  5.63158e+02 -2.12251e+03 -1.55935e+03
  1530    125.031  5.66042e+02 -2.12519e+03 -1.55915e+03
  1540    125.373  5.67591e+02 -2.12656e+03 -1.55897e+03
  1550    125.533  5.68315e+02 -2.12751e+03 -1.55919e+03
  1560    125.669  5.68931e+02 -2.12812e+03 -1.55919e+03
  1570    125.827  5.69645e+02 -2.12898e+03 -1.55933e+03
  1580    125.828  5.69652e+02 -2.12902e+03 -1.55937e+03
  1590    125.426  5.67834e+02 -2.12741e+03 -1.55957e+03
  1600    124.503  5.63653e+02 -2.12305e+03 -1.55939e+03
  1610    123.114  5.57367e+02 -2.11664e+03 -1.55927e+03
  1620    121.458  5.49866e+02 -2.10906e+03 -1.55919e+03
  1630    119.814  5.42426e+02 -2.10129e+03 -1.55887e+03
  1640    118.481  5.36391e+02 -2.09520e+03 -1.55881e+03
  1650    117.691  5.32815e+02 -2.09176e+03 -1.55895e+03
  1660    117.546  5.32158e+02 -2.09117e+03 -1.55901e+03
  1670    117.984  5.34138e+02 -2.09313e+03 -1.55899e+03
  1680    118.871  5.38154e+02 -2.09696e+03 -1.55881e+03
  1690    120.084  5.43647e+02 -2.10225e+03 -1.55861e+03
  1700    121.437  5.49772e+02 -2.10830e+03 -1.55853e+03
  1710    122.608  5.55073e+02 -2.11364e+03 -1.55857e+03
  1720    123.271  5.58074e+02 -2.11658e+03 -1.55851e+03
  1730    123.290  5.58160e+02 -2.11659e+03 -1.55843e+03
  1740    122.765  5.55783e+02 -2.11451e+03 -1.55873e+03
  1750    121.845  5.51619e+02 -2.11019e+03 -1.55857e+03
  1760    120.558  5.45792e+02 -2.10424e+03 -1.55845e+03
  1770    118.924  5.38398e+02 -2.09711e+03 -1.55871e+03
  1780    117.148  5.30354e+02 -2.08900e+03 -1.55865e+03
  1790    115.595  5.23322e+02 -2.08189e+03 -1.55857e+03
  1800    114.628  5.18948e+02 -2.07759e+03 -1.55865e+03
  1810    114.497  5.18352e+02 -2.07720e+03 -1.55885e+03
  1820    115.291  5.21946e+02 -2.08061e+03 -1.55867e+03
  1830    116.879  5.29135e+02 -2.08776e+03 -1.55863e+03
  1840    118.920  5.38377e+02 -2.09700e+03 -1.55863e+03
  1850    121.018  5.47874e+02 -2.10642e+03 -1.55855e+03
  1860    122.888  5.56343e+02 -2.11477e+03 -1.55843e+03
  1870    124.396  5.63167e+02 -2.12119e+03 -1.55803e+03
  1880    125.492  5.68130e+02 -2.12590e+03 -1.55776e+03
  1890    126.160  5.71153e+02 -2.12874e+03 -1.55758e+03
  1900    126.402  5.72252e+02 -2.12988e+03 -1.55762e+03
  1910    126.266  5.71637e+02 -2.12952e+03 -1.55788e+03
  1920    125.834  5.69677e+02 -2.12754e+03 -1.55786e+03
  1930    125.187  5.66751e+02 -2.12439e+03 -1.55764e+03
  1940    124.369  5.63048e+02 -2.12061e+03 -1.55756e+03
  1950    123.385  5.58593e+02 -2.11585e+03 -1.55726e+03
  1960    122.258  5.53489e+02 -2.11059e+03 -1.55710e+03
  1970    121.094  5.48220e+02 -2.10530e+03 -1.55708e+03
  1980    120.101  5.43726e+02 -2.10083e+03 -1.55710e+03
  1990    119.493  5.40970e+02 -2.09813e+03 -1.55716e+03
  2000    119.300  5.40099e+02 -2.09724e+03 -1.55714e+03
  2010    119.335  5.40254e+02 -2.09722e+03 -1.55696e+03
  2020    119.353  5.40338e+02 -2.09720e+03 -1.55686e+03
  2030    119.228  5.39773e+02 -2.09683e+03 -1.55706e+03
  2040    118.980  5.38649e+02 -2.09569e+03 -1.55704e+03
  2050    118.696  5.37365e+02 -2.09435e+03 -1.55698e+03
  2060    118.463  5.36310e+02 -2.09327e+03 -1.55696e+03
  2070    118.319  5.35657e+02 -2.09294e+03 -1.55728e+03
  2080    118.244  5.35319e+02 -2.09260e+03 -1.55728e+03
  2090    118.180  5.35026e+02 -2.09231e+03 -1.55728e+03
  2100    118.080  5.34576e+02 -2.09210e+03 -1.55752e+03
  2110    117.956  5.34011e+02 -2.09133e+03 -1.55732e+03
  2120    117.879  5.33663e+02 -2.09084e+03 -1.55718e+03
  2130    117.975  5.34101e+02 -2.09124e+03 -1.55714e+03
  2140    118.281  5.35485e+02 -2.09241e+03 -1.55692e+03
  2150    118.548  5.36694e+02 -2.09352e+03 -1.55682e+03
  2160    118.420  5.36114e+02 -2.09300e+03 -1.55688e+03
  2170    117.769  5.33167e+02 -2.08995e+03 -1.55678e+03
  2180    116.731  5.28468e+02 -2.08523e+03 -1.55676e+03
  2190    115.538  5.23066e+02 -2.07995e+03 -1.55688e+03
  2200    114.399  5.17912e+02 -2.07495e+03 -1.55704e+03
  2210    113.478  5.13741e+02 -2.07096e+03 -1.55722e+03
  2220    112.913  5.11183e+02 -2.06838e+03 -1.55720e+03
  2230    112.788  5.10616e+02 -2.06782e+03 -1.55720e+03
  2240    113.039  5.11754e+02 -2.06871e+03 -1.55696e+03
  2250    113.421  5.13480e+02 -2.07054e+03 -1.55706e+03
  2260    113.612  5.14348e+02 -2.07119e+03 -1.55684e+03
  2270    113.407  5.13419e+02 -2.07012e+03 -1.55670e+03
  2280    112.911  5.11172e+02 -2.06773e+03 -1.55656e+03
  2290    112.655  5.10015e+02 -2.06657e+03 -1.55656e+03
  2300    113.175  5.12370e+02 -2.06865e+03 -1.55628e+03
  2310    114.331  5.17604e+02 -2.07412e+03 -1.55652e+03
  2320    115.604  5.23364e+02 -2.07996e+03 -1.55660e+03
  2330    116.714  5.28392e+02 -2.08481e+03 -1.55642e+03
  2340    117.612  5.32454e+02 -2.08899e+03 -1.55654e+03
  2350    118.298  5.35560e+02 -2.09202e+03 -1.55646e+03
  2360    118.786  5.37773e+02 -2.09461e+03 -1.55684e+03
  2370    119.045  5.38943e+02 -2.09587e+03 -1.55692e+03
  2380    118.913  5.38344e+02 -2.09531e+03 -1.55696e+03
  2390    118.211  5.35166e+02 -2.09189e+03 -1.55672e+03
  2400    117.026  5.29802e+02 -2.08668e+03 -1.55688e+03
  2410    115.784  5.24179e+02 -2.08106e+03 -1.55688e+03
  2420    114.917  5.20257e+02 -2.07730e+03 -1.55704e+03
  2430    114.533  5.18517e+02 -2.07542e+03 -1.55690e+03
  2440    114.442  5.18104e+02 -2.07496e+03 -1.55686e+03
  2450    114.429  5.18046e+02 -2.07477e+03 -1.55672e+03
  2460    114.437  5.18081e+02 -2.07504e+03 -1.55696e+03
  2470    114.545  5.18572e+02 -2.07571e+03 -1.55714e+03
  2480    114.854  5.19971e+02 -2.07711e+03 -1.55714e+03
  2490    115.391  5.22399e+02 -2.07974e+03 -1.55734e+03
  2500    116.099  5.25607e+02 -2.08311e+03 -1.55750e+03
  2510    116.883  5.29155e+02 -2.08652e+03 -1.55736e+03
  2520    117.660  5.32673e+02 -2.08986e+03 -1.55718e+03
  2530    118.396  5.36005e+02 -2.09335e+03 -1.55734e+03
  2540    119.097  5.39180e+02 -2.09670e+03 -1.55752e+03
  2550    119.827  5.42486e+02 -2.09979e+03 -1.55730e+03
  2560    120.689  5.46386e+02 -2.10345e+03 -1.55706e+03
  2570    121.686  5.50900e+02 -2.10786e+03 -1.55696e+03
  2580    122.688  5.55435e+02 -2.11246e+03 -1.55702e+03
  2590    123.579  5.59469e+02 -2.11665e+03 -1.55718e+03
  2600    124.299  5.62730e+02 -2.11991e+03 -1.55718e+03
  2610    124.773  5.64875e+02 -2.12182e+03 -1.55694e+03
  2620    124.934  5.65606e+02 -2.12237e+03 -1.55676e+03
  2630    124.787  5.64938e+02 -2.12162e+03 -1.55668e+03
  2640    124.373  5.63063e+02 -2.11966e+03 -1.55660e+03
  2650    123.739  5.60193e+02 -2.11679e+03 -1.55660e+03
  2660    122.926  5.56513e+02 -2.11341e+03 -1.55690e+03
  2670    121.946  5.52076e+02 -2.10902e+03 -1.55694e+03
  2680    120.725  5.46548e+02 -2.10353e+03 -1.55698e+03
  2690    119.125  5.39304e+02 -2.09627e+03 -1.55696e+03
  2700    117.054  5.29931e+02 -2.08693e+03 -1.55700e+03
  2710    114.607  5.18852e+02 -2.07579e+03 -1.55694e+03
  2720    112.144  5.07703e+02 -2.06452e+03 -1.55682e+03
  2730    110.207  4.98933e+02 -2.05569e+03 -1.55676e+03
  2740    109.249  4.94595e+02 -2.05139e+03 -1.55680e+03
  2750    109.356  4.95078e+02 -2.05176e+03 -1.55668e+03
  2760    110.314  4.99418e+02 -2.05622e+03 -1.55680e+03
  2770    111.841  5.06329e+02 -2.06333e+03 -1.55700e+03
  2780    113.620  5.14383e+02 -2.07134e+03 -1.55696e+03
  2790    115.331  5.22128e+02 -2.07903e+03 -1.55690e+03
  2800    116.706  5.28354e+02 -2.08550e+03 -1.55714e+03
  2810    117.530  5.32083e+02 -2.08945e+03 -1.55736e+03
  2820    117.686  5.32789e+02 -2.09023e+03 -1.55744e+03
  2830    117.302  5.31053e+02 -2.08821e+03 -1.55716e+03
  2840    116.812  5.28833e+02 -2.08641e+03 -1.55758e+03
  2850    116.729  5.28457e+02 -2.08602e+03 -1.55756e+03
  2860    117.242  5.30779e+02 -2.08844e+03 -1.55766e+03
  2870    118.096  5.34648e+02 -2.09225e+03 -1.55760e+03
  2880    118.891  5.38244e+02 -2.09591e+03 -1.55766e+03
  2890    119.379  5.40457e+02 -2.09808e+03 -1.55762e+03
  2900    119.547  5.41216e+02 -2.09902e+03 -1.55780e+03
  2910    119.509  5.41044e+02 -2.09899e+03 -1.55794e+03
  2920    119.387  5.40491e+02 -2.09853e+03 -1.55804e+03
  2930    119.232  5.39790e+02 -2.09797e+03 -1.55818e+03
  2940    119.017  5.38817e+02 -2.09692e+03 -1.55810e+03
  2950    118.675  5.37268e+02 -2.09503e+03 -1.55776e+03
  2960    118.161  5.34941e+02 -2.09272e+03 -1.55778e+03
  2970    117.496  5.31930e+02 -2.08985e+03 -1.55792e+03
  2980    116.760  5.28598e+02 -2.08656e+03 -1.55796e+03
  2990    116.044  5.25359e+02 -2.08336e+03 -1.55800e+03
  3000    115.391  5.22403e+02 -2.07995e+03 -1.55754e+03
  3010    114.786  5.19661e+02 -2.07738e+03 -1.55772e+03
  3020    114.218  5.17090e+02 -2.07469e+03 -1.55760e+03
  3030    113.766  5.15045e+02 -2.07267e+03 -1.55762e+03
  3040    113.623  5.14399e+02 -2.07228e+03 -1.55788e+03
  3050    113.975  5.15989e+02 -2.07383e+03 -1.55784e+03
  3060    114.819  5.19811e+02 -2.07745e+03 -1.55764e+03
  3070    115.950  5.24931e+02 -2.08255e+03 -1.55762e+03
  3080    117.107  5.30171e+02 -2.08749e+03 -1.55732e+03
  3090    118.098  5.34658e+02 -2.09204e+03 -1.55738e+03
  3100    118.806  5.37863e+02 -2.09517e+03 -1.55730e+03
  3110    119.142  5.39385e+02 -2.09635e+03 -1.55696e+03
  3120    119.026  5.38856e+02 -2.09590e+03 -1.55704e+03
  3130    118.391  5.35983e+02 -2.09323e+03 -1.55724e+03
  3140    117.252  5.30828e+02 -2.08807e+03 -1.55724e+03
  3150    115.761  5.24077e+02 -2.08144e+03 -1.55736e+03
  3160    114.215  5.17077e+02 -2.07450e+03 -1.55742e+03
  3170    112.952  5.11360e+02 -2.06888e+03 -1.55752e+03
  3180    112.167  5.07807e+02 -2.06517e+03 -1.55736e+03
  3190    111.803  5.06160e+02 -2.06328e+03 -1.55712e+03
  3200    111.660  5.05511e+02 -2.06279e+03 -1.55728e+03
  3210    111.576  5.05131e+02 -2.06249e+03 -1.55736e+03
  3220    111.543  5.04981e+02 -2.06220e+03 -1.55722e+03
  3230    111.692  5.05654e+02 -2.06255e+03 -1.55690e+03
  3240    112.184  5.07882e+02 -2.06484e+03 -1.55696e+03
  3250    113.099  5.12025e+02 -2.06894e+03 -1.55692e+03
  3260    114.367  5.17764e+02 -2.07466e+03 -1.55690e+03
  3270    115.774  5.24137e+02 -2.08108e+03 -1.55694e+03
  3280    117.068  5.29992e+02 -2.08703e+03 -1.55704e+03
  3290    118.089  5.34617e+02 -2.09182e+03 -1.55720e+03
  3300    118.823  5.37937e+02 -2.09514e+03 -1.55720e+03
  3310    119.308  5.40136e+02 -2.09756e+03 -1.55742e+03
  3320    119.620  5.41545e+02 -2.09909e+03 -1.55754e+03
  3330    119.907  5.42846e+02 -2.10039e+03 -1.55754e+03
  3340    120.379  5.44982e+02 -2.10248e+03 -1.55750e+03
  3350    121.137  5.48416e+02 -2.10588e+03 -1.55746e+03
  3360    121.999  5.52315e+02 -2.10974e+03 -1.55742e+03
  3370    122.544  5.54782e+02 -2.11229e+03 -1.55750e+03
  3380    122.423  5.54238e+02 -2.11176e+03 -1.55752e+03
  3390    121.586  5.50447e+02 -2.10833e+03 -1.55788e+03
  3400    120.246  5.44380e+02 -2.10218e+03 -1.55780e+03
  3410    118.761  5.37660e+02 -2.09546e+03 -1.55780e+03
  3420    117.502  5.31956e+02 -2.08986e+03 -1.55790e+03
  3430    116.731  5.28468e+02 -2.08641e+03 -1.55794e+03
  3440    116.520  5.27513e+02 -2.08532e+03 -1.55780e+03
  3450    116.692  5.28291e+02 -2.08607e+03 -1.55778e+03
  3460    116.967  5.29534e+02 -2.08750e+03 -1.55796e+03
  3470    117.198  5.30580e+02 -2.08838e+03 -1.55780e+03
  3480    117.395  5.31474e+02 -2.08946e+03 -1.55798e+03
  3490    117.610  5.32445e+02 -2.09075e+03 -1.55830e+03
  3500    117.834  5.33459e+02 -2.09150e+03 -1.55804e+03
  3510    117.989  5.34162e+02 -2.09215e+03 -1.55798e+03
  3520    118.017  5.34288e+02 -2.09227e+03 -1.55798e+03
  3530    117.968  5.34067e+02 -2.09221e+03 -1.55814e+03
  3540    117.964  5.34047e+02 -2.09223e+03 -1.55818e+03
  3550    118.059  5.34478e+02 -2.09280e+03 -1.55832e+03
  3560    118.206  5.35146e+02 -2.09341e+03 -1.55826e+03
  3570    118.328  5.35700e+02 -2.09406e+03 -1.55836e+03
  3580    118.373  5.35900e+02 -2.09424e+03 -1.55834e+03
  3590    118.343  5.35765e+02 -2.09383e+03 -1.55806e+03
  3600    118.334  5.35725e+02 -2.09369e+03 -1.55796e+03
  3610    118.463  5.36310e+02 -2.09435e+03 -1.55804e+03
  3620    118.719  5.37466e+02 -2.09551e+03 -1.55804e+03
  3630    118.928  5.38416e+02 -2.09638e+03 -1.55796e+03
  3640    118.896  5.38271e+02 -2.09605e+03 -1.55778e+03
  3650    118.510  5.36519e+02 -2.09410e+03 -1.55758e+03
  3660    117.760  5.33125e+02 -2.09069e+03 -1.55756e+03
  3670    116.757  5.28583e+02 -2.08640e+03 -1.55782e+03
  3680    115.733  5.23950e+02 -2.08181e+03 -1.55786e+03
  3690    114.992  5.20596e+02 -2.07824e+03 -1.55764e+03
  3700    114.761  5.19547e+02 -2.07709e+03 -1.55754e+03
  3710    115.062  5.20910e+02 -2.07839e+03 -1.55748e+03
  3720    115.756  5.24054e+02 -2.08161e+03 -1.55756e+03
  3730    116.664  5.28164e+02 -2.08566e+03 -1.55750e+03
  3740    117.600  5.32403e+02 -2.08988e+03 -1.55748e+03
  3750    118.367  5.35874e+02 -2.09350e+03 -1.55762e+03
  3760    118.799  5.37828e+02 -2.09565e+03 -1.55782e+03
  3770    118.841  5.38020e+02 -2.09606e+03 -1.55804e+03
  3780    118.585  5.36861e+02 -2.09472e+03 -1.55786e+03
  3790    118.244  5.35316e+02 -2.09308e+03 -1.55776e+03
  3800    118.022  5.34311e+02 -2.09223e+03 -1.55792e+03
  3810    117.963  5.34047e+02 -2.09199e+03 -1.55794e+03
  3820    117.976  5.34105e+02 -2.09183e+03 -1.55772e+03
  3830    117.963  5.34044e+02 -2.09177e+03 -1.55772e+03
  3840    117.859  5.33576e+02 -2.09110e+03 -1.55752e+03
  3850    117.653  5.32643e+02 -2.09010e+03 -1.55746e+03
  3860    117.449  5.31719e+02 -2.08938e+03 -1.55766e+03
  3870    117.502  5.31960e+02 -2.08970e+03 -1.55774e+03
  3880    118.087  5.34608e+02 -2.09237e+03 -1.55776e+03
  3890    119.203  5.39659e+02 -2.09744e+03 -1.55778e+03
  3900    120.440  5.45260e+02 -2.10329e+03 -1.55803e+03
  3910    121.249  5.48920e+02 -2.10701e+03 -1.55809e+03
  3920    121.322  5.49252e+02 -2.10748e+03 -1.55823e+03
  3930    120.712  5.46491e+02 -2.10472e+03 -1.55823e+03
  3940    119.716  5.41981e+02 -2.10021e+03 -1.55822e+03
  3950    118.686  5.37320e+02 -2.09546e+03 -1.55814e+03
  3960    117.861  5.33584e+02 -2.09191e+03 -1.55832e+03
  3970    117.299  5.31040e+02 -2.08934e+03 -1.55830e+03
  3980    116.996  5.29666e+02 -2.08797e+03 -1.55830e+03
  3990    117.026  5.29802e+02 -2.08847e+03 -1.55867e+03
  4000    117.483  5.31874e+02 -2.09072e+03 -1.55885e+03
  4010    118.312  5.35625e+02 -2.09427e+03 -1.55865e+03
  4020    119.315  5.40164e+02 -2.09889e+03 -1.55873e+03
  4030    120.297  5.44611e+02 -2.10330e+03 -1.55869e+03
  4040    121.134  5.48403e+02 -2.10715e+03 -1.55875e+03
  4050    121.763  5.51249e+02 -2.11016e+03 -1.55891e+03
  4060    122.137  5.52944e+02 -2.11183e+03 -1.55889e+03
  4070    122.191  5.53187e+02 -2.11189e+03 -1.55871e+03
  4080    121.839  5.51590e+02 -2.11060e+03 -1.55901e+03
  4090    121.047  5.48006e+02 -2.10689e+03 -1.55889e+03
  4100    119.934  5.42970e+02 -2.10176e+03 -1.55879e+03
  4110    118.779  5.37740e+02 -2.09636e+03 -1.55863e+03
  4120    117.885  5.33692e+02 -2.09224e+03 -1.55854e+03
  4130    117.396  5.31480e+02 -2.08988e+03 -1.55840e+03
  4140    117.258  5.30854e+02 -2.08918e+03 -1.55832e+03
  4150    117.390  5.31451e+02 -2.08951e+03 -1.55806e+03
  4160    117.837  5.33476e+02 -2.09160e+03 -1.55812e+03
  4170    118.677  5.37275e+02 -2.09530e+03 -1.55802e+03
  4180    119.840  5.42542e+02 -2.10058e+03 -1.55804e+03
  4190    121.118  5.48330e+02 -2.10635e+03 -1.55802e+03
  4200    122.280  5.53587e+02 -2.11151e+03 -1.55792e+03
  4210    123.149  5.57525e+02 -2.11539e+03 -1.55786e+03
  4220    123.650  5.59792e+02 -2.11759e+03 -1.55780e+03
  4230    123.804  5.60487e+02 -2.11827e+03 -1.55778e+03
  4240    123.691  5.59978e+02 -2.11746e+03 -1.55748e+03
  4250    123.401  5.58666e+02 -2.11631e+03 -1.55764e+03
  4260    123.016  5.56919e+02 -2.11446e+03 -1.55754e+03
  4270    122.623  5.55141e+02 -2.11256e+03 -1.55742e+03
  4280    122.328  5.53807e+02 -2.11145e+03 -1.55764e+03
  4290    122.188  5.53172e+02 -2.11093e+03 -1.55776e+03
  4300    122.137  5.52941e+02 -2.11048e+03 -1.55754e+03
  4310    122.011  5.52373e+02 -2.10987e+03 -1.55750e+03
  4320    121.669  5.50822e+02 -2.10808e+03 -1.55726e+03
  4330    121.094  5.48220e+02 -2.10570e+03 -1.55748e+03
  4340    120.389  5.45029e+02 -2.10263e+03 -1.55760e+03
  4350    119.674  5.41792e+02 -2.09937e+03 -1.55758e+03
  4360    119.021  5.38835e+02 -2.09640e+03 -1.55756e+03
  4370    118.443  5.36217e+02 -2.09380e+03 -1.55758e+03
  4380    117.917  5.33835e+02 -2.09166e+03 -1.55782e+03
  4390    117.455  5.31746e+02 -2.08961e+03 -1.55786e+03
  4400    117.132  5.30285e+02 -2.08811e+03 -1.55782e+03
  4410    117.037  5.29851e+02 -2.08741e+03 -1.55756e+03
  4420    117.198  5.30583e+02 -2.08816e+03 -1.55758e+03
  4430    117.556  5.32204e+02 -2.09013e+03 -1.55792e+03
  4440    117.986  5.34150e+02 -2.09237e+03 -1.55822e+03
  4450    118.362  5.35852e+02 -2.09388e+03 -1.55802e+03
  4460    118.611  5.36977e+02 -2.09508e+03 -1.55810e+03
  4470    118.724  5.37490e+02 -2.09543e+03 -1.55794e+03
  4480    118.743  5.37578e+02 -2.09542e+03 -1.55784e+03
  4490    118.730  5.37517e+02 -2.09538e+03 -1.55786e+03
  4500    118.721  5.37478e+02 -2.09532e+03 -1.55784e+03
  4510    118.708  5.37417e+02 -2.09514e+03 -1.55772e+03
  4520    118.675  5.37268e+02 -2.09501e+03 -1.55774e+03
  4530    118.678  5.37280e+02 -2.09512e+03 -1.55784e+03
  4540    118.853  5.38074e+02 -2.09587e+03 -1.55780e+03
  4550    119.327  5.40220e+02 -2.09824e+03 -1.55802e+03
  4560    120.082  5.43639e+02 -2.10186e+03 -1.55822e+03
  4570    120.959  5.47606e+02 -2.10589e+03 -1.55828e+03
  4580    121.763  5.51250e+02 -2.10943e+03 -1.55818e+03
  4590    122.346  5.53889e+02 -2.11223e+03 -1.55834e+03
  4600    122.606  5.55067e+02 -2.11335e+03 -1.55828e+03
  4610    122.506  5.54614e+02 -2.11312e+03 -1.55850e+03
  4620    122.089  5.52725e+02 -2.11125e+03 -1.55852e+03
  4630    121.447  5.49817e+02 -2.10826e+03 -1.55844e+03
  4640    120.649  5.46204e+02 -2.10477e+03 -1.55856e+03
  4650    119.739  5.42087e+02 -2.10041e+03 -1.55832e+03
  4660    118.808  5.37871e+02 -2.09617e+03 -1.55830e+03
  4670    118.039  5.34387e+02 -2.09263e+03 -1.55824e+03
  4680    117.655  5.32649e+02 -2.09097e+03 -1.55832e+03
  4690    117.835  5.33467e+02 -2.09181e+03 -1.55834e+03
  4700    118.674  5.37265e+02 -2.09551e+03 -1.55824e+03
  4710    120.118  5.43802e+02 -2.10214e+03 -1.55834e+03
  4720    121.911  5.51921e+02 -2.11022e+03 -1.55830e+03
  4730    123.655  5.59814e+02 -2.11830e+03 -1.55848e+03
  4740    124.969  5.65763e+02 -2.12437e+03 -1.55861e+03
  4750    125.606  5.68648e+02 -2.12727e+03 -1.55863e+03
  4760    125.470  5.68029e+02 -2.12674e+03 -1.55871e+03
  4770    124.587  5.64032e+02 -2.12276e+03 -1.55873e+03
  4780    123.118  5.57385e+02 -2.11605e+03 -1.55867e+03
  4790    121.369  5.49465e+02 -2.10819e+03 -1.55872e+03
  4800    119.726  5.42027e+02 -2.10065e+03 -1.55862e+03
  4810    118.494  5.36449e+02 -2.09509e+03 -1.55864e+03
  4820    117.746  5.33063e+02 -2.09161e+03 -1.55854e+03
  4830    117.347  5.31255e+02 -2.09000e+03 -1.55874e+03
  4840    117.112  5.30194e+02 -2.08868e+03 -1.55848e+03
  4850    116.946  5.29442e+02 -2.08831e+03 -1.55887e+03
  4860    116.839  5.28956e+02 -2.08784e+03 -1.55889e+03
  4870    116.759  5.28596e+02 -2.08734e+03 -1.55874e+03
  4880    116.611  5.27924e+02 -2.08645e+03 -1.55852e+03
  4890    116.309  5.26555e+02 -2.08508e+03 -1.55852e+03
  4900    115.909  5.24747e+02 -2.08317e+03 -1.55842e+03
  4910    115.633  5.23495e+02 -2.08194e+03 -1.55844e+03
  4920    115.763  5.24084e+02 -2.08267e+03 -1.55858e+03
  4930    116.517  5.27497e+02 -2.08616e+03 -1.55866e+03
  4940    117.919  5.33845e+02 -2.09229e+03 -1.55844e+03
  4950    119.743  5.42104e+02 -2.10059e+03 -1.55848e+03
  4960    121.579  5.50414e+02 -2.10888e+03 -1.55846e+03
  4970    122.983  5.56771e+02 -2.11512e+03 -1.55835e+03
  4980    123.611  5.59617e+02 -2.11806e+03 -1.55845e+03
  4990    123.288  5.58155e+02 -2.11644e+03 -1.55829e+03
  5000    122.045  5.52526e+02 -2.11081e+03 -1.55828e+03
  5010    120.180  5.44081e+02 -2.10232e+03 -1.55824e+03
  5020    118.263  5.35404e+02 -2.09353e+03 -1.55812e+03
  5030    116.902  5.29239e+02 -2.08754e+03 -1.55830e+03
  5040    116.304  5.26534e+02 -2.08494e+03 -1.55840e+03
  5050    116.231  5.26203e+02 -2.08428e+03 -1.55808e+03
  5060    116.359  5.26782e+02 -2.08478e+03 -1.55800e+03
  5070    116.538  5.27596e+02 -2.08548e+03 -1.55788e+03
  5080    116.834  5.28935e+02 -2.08704e+03 -1.55810e+03
  5090    117.372  5.31371e+02 -2.08969e+03 -1.55832e+03
  5100    118.111  5.34713e+02 -2.09304e+03 -1.55832e+03
  5110    118.859  5.38101e+02 -2.09665e+03 -1.55854e+03
  5120    119.478  5.40902e+02 -2.09953e+03 -1.55862e+03
  5130    119.937  5.42980e+02 -2.10142e+03 -1.55844e+03
  5140    120.334  5.44778e+02 -2.10318e+03 -1.55840e+03
  5150    120.889  5.47292e+02 -2.10559e+03 -1.55830e+03
  5160    121.716  5.51034e+02 -2.10954e+03 -1.55850e+03
  5170    122.594  5.55011e+02 -2.11358e+03 -1.55856e+03
  5180    123.191  5.57714e+02 -2.11614e+03 -1.55842e+03
  5190    123.435  5.58819e+02 -2.11726e+03 -1.55844e+03
  5200    123.576  5.59457e+02 -2.11774e+03 -1.55828e+03
  5210    123.974  5.61258e+02 -2.11966e+03 -1.55840e+03
  5220    124.818  5.65081e+02 -2.12308e+03 -1.55800e+03
  5230    126.010  5.70475e+02 -2.12872e+03 -1.55824e+03
  5240    127.274  5.76200e+02 -2.13454e+03 -1.55834e+03
  5250    128.342  5.81032e+02 -2.13948e+03 -1.55844e+03
  5260    129.008  5.84046e+02 -2.14243e+03 -1.55838e+03
  5270    129.115  5.84531e+02 -2.14286e+03 -1.55833e+03
  5280    128.572  5.82074e+02 -2.14052e+03 -1.55845e+03
  5290    127.422  5.76866e+02 -2.13521e+03 -1.55834e+03
  5300    125.854  5.69768e+02 -2.12825e+03 -1.55848e+03
  5310    124.136  5.61993e+02 -2.12060e+03 -1.55860e+03
  5320    122.543  5.54778e+02 -2.11326e+03 -1.55848e+03
  5330    121.334  5.49307e+02 -2.10783e+03 -1.55852e+03
  5340    120.731  5.46577e+02 -2.10512e+03 -1.55854e+03
  5350    120.848  5.47104e+02 -2.10563e+03 -1.55852e+03
  5360    121.580  5.50418e+02 -2.10912e+03 -1.55870e+03
  5370    122.591  5.54998e+02 -2.11370e+03 -1.55871e+03
  5380    123.502  5.59120e+02 -2.11771e+03 -1.55859e+03
  5390    124.048  5.61591e+02 -2.11994e+03 -1.55835e+03
  5400    124.071  5.61696e+02 -2.12006e+03 -1.55837e+03
  5410    123.525  5.59224e+02 -2.11759e+03 -1.55837e+03
  5420    122.505  5.54608e+02 -2.11333e+03 -1.55873e+03
  5430    121.188  5.48645e+02 -2.10717e+03 -1.55852e+03
  5440    119.724  5.42019e+02 -2.10030e+03 -1.55828e+03
  5450    118.209  5.35157e+02 -2.09342e+03 -1.55826e+03
  5460    116.747  5.28541e+02 -2.08678e+03 -1.55824e+03
  5470    115.530  5.23031e+02 -2.08127e+03 -1.55824e+03
  5480    114.834  5.19881e+02 -2.07808e+03 -1.55820e+03
  5490    114.891  5.20135e+02 -2.07804e+03 -1.55790e+03
  5500    115.675  5.23688e+02 -2.08137e+03 -1.55768e+03
  5510    116.890  5.29185e+02 -2.08693e+03 -1.55774e+03
  5520    118.180  5.35026e+02 -2.09273e+03 -1.55770e+03
  5530    119.341  5.40285e+02 -2.09813e+03 -1.55784e+03
  5540    120.314  5.44689e+02 -2.10247e+03 -1.55778e+03
  5550    121.059  5.48061e+02 -2.10578e+03 -1.55772e+03
  5560    121.512  5.50113e+02 -2.10759e+03 -1.55748e+03
  5570    121.648  5.50729e+02 -2.10801e+03 -1.55728e+03
  5580    121.535  5.50218e+02 -2.10762e+03 -1.55740e+03
  5590    121.280  5.49061e+02 -2.10640e+03 -1.55734e+03
  5600    120.936  5.47505e+02 -2.10466e+03 -1.55716e+03
  5610    120.474  5.45412e+02 -2.10269e+03 -1.55728e+03
  5620    119.829  5.42492e+02 -2.09989e+03 -1.55740e+03
  5630    118.957  5.38545e+02 -2.09574e+03 -1.55720e+03
  5640    117.920  5.33849e+02 -2.09127e+03 -1.55742e+03
  5650    116.979  5.29590e+02 -2.08685e+03 -1.55726e+03
  5660    116.547  5.27634e+02 -2.08483e+03 -1.55720e+03
  5670    116.862  5.29059e+02 -2.08636e+03 -1.55730e+03
  5680    117.693  5.32823e+02 -2.09032e+03 -1.55750e+03
  5690    118.509  5.36518e+02 -2.09390e+03 -1.55738e+03
  5700    118.899  5.38281e+02 -2.09570e+03 -1.55742e+03
  5710    118.778  5.37735e+02 -2.09538e+03 -1.55764e+03
  5720    118.305  5.35595e+02 -2.09346e+03 -1.55786e+03
  5730    117.680  5.32764e+02 -2.09079e+03 -1.55802e+03
  5740    117.014  5.29746e+02 -2.08775e+03 -1.55800e+03
  5750    116.344  5.26717e+02 -2.08490e+03 -1.55818e+03
  5760    115.728  5.23926e+02 -2.08213e+03 -1.55820e+03
  5770    115.251  5.21766e+02 -2.07983e+03 -1.55806e+03
  5780    114.963  5.20462e+02 -2.07877e+03 -1.55830e+03
  5790    114.883  5.20102e+02 -2.07829e+03 -1.55818e+03
  5800    115.062  5.20913e+02 -2.07928e+03 -1.55836e+03
  5810    115.554  5.23138e+02 -2.08142e+03 -1.55828e+03
  5820    116.326  5.26633e+02 -2.08492e+03 -1.55828e+03
  5830    117.237  5.30757e+02 -2.08892e+03 -1.55817e+03
  5840    118.065  5.34508e+02 -2.09297e+03 -1.55847e+03
  5850    118.550  5.36702e+02 -2.09519e+03 -1.55849e+03
  5860    118.525  5.36591e+02 -2.09478e+03 -1.55819e+03
  5870    118.027  5.34333e+02 -2.09264e+03 -1.55831e+03
  5880    117.231  5.30733e+02 -2.08902e+03 -1.55829e+03
  5890    116.395  5.26948e+02 -2.08529e+03 -1.55834e+03
  5900    115.846  5.24459e+02 -2.08290e+03 -1.55844e+03
  5910    115.935  5.24865e+02 -2.08339e+03 -1.55852e+03
  5920    116.872  5.29105e+02 -2.08783e+03 -1.55872e+03
  5930    118.531  5.36617e+02 -2.09528e+03 -1.55867e+03
  5940    120.500  5.45529e+02 -2.10434e+03 -1.55881e+03
  5950    122.333  5.53831e+02 -2.11292e+03 -1.55909e+03
  5960    123.763  5.60302e+02 -2.11951e+03 -1.55921e+03
  5970    124.712  5.64600e+02 -2.12353e+03 -1.55893e+03
  5980    125.236  5.66972e+02 -2.12616e+03 -1.55919e+03
  5990    125.455  5.67962e+02 -2.12709e+03 -1.55913e+03
  6000    125.496  5.68146e+02 -2.12723e+03 -1.55909e+03
  6010    125.411  5.67765e+02 -2.12699e+03 -1.55923e+03
  6020    125.143  5.66553e+02 -2.12558e+03 -1.55903e+03
  6030    124.599  5.64089e+02 -2.12288e+03 -1.55879e+03
  6040    123.763  5.60304e+02 -2.11887e+03 -1.55857e+03
  6050    122.727  5.55615e+02 -2.11400e+03 -1.55839e+03
  6060    121.644  5.50710e+02 -2.10901e+03 -1.55830e+03
  6070    120.675  5.46325e+02 -2.10451e+03 -1.55818e+03
  6080    119.960  5.43087e+02 -2.10097e+03 -1.55788e+03
  6090    119.590  5.41411e+02 -2.09927e+03 -1.55786e+03
  6100    119.571  5.41323e+02 -2.09923e+03 -1.55790e+03
  6110    119.807  5.42392e+02 -2.10032e+03 -1.55792e+03
  6120    120.154  5.43966e+02 -2.10195e+03 -1.55798e+03
  6130    120.519  5.45615e+02 -2.10334e+03 -1.55772e+03
  6140    120.891  5.47299e+02 -2.10498e+03 -1.55768e+03
  6150    121.264  5.48991e+02 -2.10649e+03 -1.55750e+03
  6160    121.547  5.50272e+02 -2.10794e+03 -1.55766e+03
  6170    121.586  5.50445e+02 -2.10793e+03 -1.55748e+03
  6180    121.273  5.49030e+02 -2.10635e+03 -1.55732e+03
  6190    120.617  5.46062e+02 -2.10336e+03 -1.55730e+03
  6200    119.751  5.42141e+02 -2.09926e+03 -1.55712e+03
  6210    118.919  5.38371e+02 -2.09541e+03 -1.55704e+03
  6220    118.353  5.35813e+02 -2.09291e+03 -1.55710e+03
  6230    118.081  5.34580e+02 -2.09154e+03 -1.55696e+03
  6240    117.845  5.33513e+02 -2.09059e+03 -1.55708e+03
  6250    117.303  5.31055e+02 -2.08800e+03 -1.55694e+03
  6260    116.317  5.26595e+02 -2.08346e+03 -1.55686e+03
  6270    115.078  5.20984e+02 -2.07774e+03 -1.55676e+03
  6280    113.966  5.15948e+02 -2.07289e+03 -1.55694e+03
  6290    113.311  5.12986e+02 -2.06954e+03 -1.55656e+03
  6300    113.246  5.12691e+02 -2.06919e+03 -1.55650e+03
  6310    113.736  5.14911e+02 -2.07131e+03 -1.55640e+03
  6320    114.656  5.19071e+02 -2.07537e+03 -1.55630e+03
  6330    115.774  5.24136e+02 -2.08066e+03 -1.55652e+03
  6340    116.758  5.28591e+02 -2.08537e+03 -1.55678e+03
  6350    117.356  5.31298e+02 -2.08810e+03 -1.55680e+03
  6360    117.615  5.32472e+02 -2.08935e+03 -1.55688e+03
  6370    117.802  5.33316e+02 -2.08994e+03 -1.55662e+03
  6380    118.119  5.34750e+02 -2.09147e+03 -1.55672e+03
  6390    118.597  5.36915e+02 -2.09363e+03 -1.55672e+03
  6400    119.168  5.39499e+02 -2.09606e+03 -1.55656e+03
  6410    119.679  5.41814e+02 -2.09853e+03 -1.55672e+03
  6420    119.966  5.43111e+02 -2.10021e+03 -1.55710e+03
  6430    120.027  5.43389e+02 -2.10063e+03 -1.55724e+03
  6440    120.048  5.43483e+02 -2.10058e+03 -1.55710e+03
  6450    120.162  5.44001e+02 -2.10108e+03 -1.55708e+03
  6460    120.295  5.44601e+02 -2.10156e+03 -1.55696e+03
  6470    120.319  5.44713e+02 -2.10185e+03 -1.55714e+03
  6480    120.225  5.44285e+02 -2.10153e+03 -1.55724e+03
  6490    119.975  5.43155e+02 -2.10020e+03 -1.55704e+03
  6500    119.411  5.40599e+02 -2.09786e+03 -1.55726e+03
  6510    118.469  5.36334e+02 -2.09394e+03 -1.55760e+03
  6520    117.291  5.31002e+02 -2.08828e+03 -1.55728e+03
  6530    116.104  5.25631e+02 -2.08299e+03 -1.55736e+03
  6540    115.109  5.21126e+02 -2.07839e+03 -1.55726e+03
  6550    114.398  5.17904e+02 -2.07472e+03 -1.55682e+03
  6560    113.898  5.15641e+02 -2.07244e+03 -1.55680e+03
  6570    113.442  5.13579e+02 -2.07040e+03 -1.55682e+03
  6580    112.929  5.11257e+02 -2.06800e+03 -1.55674e+03
  6590    112.431  5.09002e+02 -2.06568e+03 -1.55668e+03
  6600    112.152  5.07735e+02 -2.06463e+03 -1.55690e+03
  6610    112.252  5.08190e+02 -2.06479e+03 -1.55660e+03
  6620    112.724  5.10325e+02 -2.06714e+03 -1.55682e+03
  6630    113.471  5.13708e+02 -2.07067e+03 -1.55696e+03
  6640    114.428  5.18040e+02 -2.07492e+03 -1.55688e+03
  6650    115.524  5.23001e+02 -2.07970e+03 -1.55670e+03
  6660    116.652  5.28111e+02 -2.08499e+03 -1.55688e+03
  6670    117.725  5.32967e+02 -2.08991e+03 -1.55694e+03
  6680    118.687  5.37322e+02 -2.09436e+03 -1.55704e+03
  6690    119.478  5.40904e+02 -2.09788e+03 -1.55698e+03
  6700    120.017  5.43342e+02 -2.10020e+03 -1.55686e+03
  6710    120.241  5.44359e+02 -2.10124e+03 -1.55688e+03
  6720    120.153  5.43958e+02 -2.10054e+03 -1.55658e+03
  6730    119.802  5.42369e+02 -2.09883e+03 -1.55646e+03
  6740    119.238  5.39817e+02 -2.09621e+03 -1.55640e+03
  6750    118.488  5.36424e+02 -2.09302e+03 -1.55660e+03
  6760    117.575  5.32287e+02 -2.08911e+03 -1.55682e+03
  6770    116.554  5.27664e+02 -2.08440e+03 -1.55674e+03
  6780    115.543  5.23091e+02 -2.07981e+03 -1.55672e+03
  6790    114.724  5.19383e+02 -2.07632e+03 -1.55694e+03
  6800    114.310  5.17507e+02 -2.07435e+03 -1.55684e+03
  6810    114.464  5.18206e+02 -2.07468e+03 -1.55648e+03
  6820    115.211  5.21586e+02 -2.07824e+03 -1.55666e+03
  6830    116.397  5.26957e+02 -2.08364e+03 -1.55668e+03
  6840    117.748  5.33070e+02 -2.08959e+03 -1.55652e+03
  6850    118.944  5.38486e+02 -2.09506e+03 -1.55658e+03
  6860    119.704  5.41928e+02 -2.09855e+03 -1.55662e+03
  6870    119.869  5.42674e+02 -2.09960e+03 -1.55692e+03
  6880    119.459  5.40819e+02 -2.09796e+03 -1.55714e+03
  6890    118.653  5.37170e+02 -2.09425e+03 -1.55708e+03
  6900    117.694  5.32826e+02 -2.09013e+03 -1.55730e+03
  6910    116.810  5.28827e+02 -2.08617e+03 -1.55734e+03
  6920    116.185  5.25997e+02 -2.08294e+03 -1.55694e+03
  6930    115.919  5.24791e+02 -2.08177e+03 -1.55698e+03
  6940    115.990  5.25113e+02 -2.08221e+03 -1.55710e+03
  6950    116.292  5.26478e+02 -2.08340e+03 -1.55692e+03
  6960    116.684  5.28255e+02 -2.08483e+03 -1.55658e+03
  6970    117.001  5.29691e+02 -2.08619e+03 -1.55650e+03
  6980    117.079  5.30041e+02 -2.08666e+03 -1.55662e+03
  6990    116.818  5.28860e+02 -2.08538e+03 -1.55652e+03
  7000    116.245  5.26269e+02 -2.08271e+03 -1.55644e+03
  7010    115.547  5.23106e+02 -2.07970e+03 -1.55660e+03
  7020    115.010  5.20678e+02 -2.07750e+03 -1.55682e+03
  7030    114.883  5.20103e+02 -2.07732e+03 -1.55722e+03
  7040    115.245  5.21740e+02 -2.07872e+03 -1.55698e+03
  7050    115.997  5.25144e+02 -2.08248e+03 -1.55734e+03
  7060    116.942  5.29421e+02 -2.08682e+03 -1.55740e+03
  7070    117.838  5.33481e+02 -2.09078e+03 -1.55730e+03
  7080    118.430  5.36160e+02 -2.09356e+03 -1.55740e+03
  7090    118.512  5.36529e+02 -2.09405e+03 -1.55752e+03
  7100    118.038  5.34385e+02 -2.09213e+03 -1.55774e+03
  7110    117.205  5.30614e+02 -2.08820e+03 -1.55758e+03
  7120    116.381  5.26884e+02 -2.08459e+03 -1.55770e+03
  7130    115.841  5.24437e+02 -2.08170e+03 -1.55726e+03
  7140    115.563  5.23178e+02 -2.08032e+03 -1.55714e+03
  7150    115.365  5.22282e+02 -2.07926e+03 -1.55698e+03
  7160    115.127  5.21207e+02 -2.07809e+03 -1.55688e+03
  7170    114.833  5.19876e+02 -2.07681e+03 -1.55694e+03
  7180    114.474  5.18249e+02 -2.07515e+03 -1.55690e+03
  7190    114.016  5.16175e+02 -2.07307e+03 -1.55690e+03
  7200    113.451  5.13619e+02 -2.07062e+03 -1.55700e+03
  7210    112.834  5.10824e+02 -2.06784e+03 -1.55702e+03
  7220    112.250  5.08183e+02 -2.06520e+03 -1.55702e+03
  7230    111.788  5.06087e+02 -2.06313e+03 -1.55704e+03
  7240    111.539  5.04964e+02 -2.06180e+03 -1.55684e+03
  7250    111.586  5.05174e+02 -2.06223e+03 -1.55706e+03
  7260    111.944  5.06795e+02 -2.06399e+03 -1.55720e+03
  7270    112.563  5.09599e+02 -2.06718e+03 -1.55758e+03
  7280    113.377  5.13284e+02 -2.07099e+03 -1.55770e+03
  7290    114.339  5.17640e+02 -2.07552e+03 -1.55788e+03
  7300    115.397  5.22428e+02 -2.08001e+03 -1.55758e+03
  7310    116.459  5.27236e+02 -2.08488e+03 -1.55764e+03
  7320    117.371  5.31366e+02 -2.08909e+03 -1.55772e+03
  7330    117.928  5.33887e+02 -2.09145e+03 -1.55756e+03
  7340    117.969  5.34074e+02 -2.09158e+03 -1.55750e+03
  7350    117.528  5.32075e+02 -2.08948e+03 -1.55740e+03
  7360    116.880  5.29144e+02 -2.08681e+03 -1.55766e+03
  7370    116.365  5.26813e+02 -2.08441e+03 -1.55760e+03
  7380    116.123  5.25715e+02 -2.08317e+03 -1.55746e+03
  7390    116.092  5.25575e+02 -2.08310e+03 -1.55752e+03
  7400    116.179  5.25967e+02 -2.08333e+03 -1.55736e+03
  7410    116.318  5.26597e+02 -2.08380e+03 -1.55720e+03
  7420    116.471  5.27292e+02 -2.08477e+03 -1.55748e+03
  7430    116.610  5.27919e+02 -2.08540e+03 -1.55748e+03
  7440    116.681  5.28243e+02 -2.08556e+03 -1.55732e+03
  7450    116.592  5.27836e+02 -2.08514e+03 -1.55730e+03
  7460    116.242  5.26255e+02 -2.08368e+03 -1.55742e+03
  7470    115.629  5.23479e+02 -2.08084e+03 -1.55736e+03
  7480    114.896  5.20158e+02 -2.07736e+03 -1.55720e+03
  7490    114.214  5.17073e+02 -2.07409e+03 -1.55702e+03
  7500    113.608  5.14328e+02 -2.07125e+03 -1.55692e+03
  7510    112.994  5.11548e+02 -2.06861e+03 -1.55706e+03
  7520    112.393  5.08830e+02 -2.06603e+03 -1.55720e+03
  7530    111.958  5.06859e+02 -2.06422e+03 -1.55736e+03
  7540    111.821  5.06241e+02 -2.06376e+03 -1.55752e+03
  7550    112.021  5.07143e+02 -2.06464e+03 -1.55750e+03
  7560    112.541  5.09498e+02 -2.06704e+03 -1.55754e+03
  7570    113.331  5.13073e+02 -2.07059e+03 -1.55752e+03
  7580    114.246  5.17217e+02 -2.07494e+03 -1.55772e+03
  7590    115.029  5.20762e+02 -2.07864e+03 -1.55788e+03
  7600    115.396  5.22423e+02 -2.08035e+03 -1.55792e+03
  7610    115.199  5.21533e+02 -2.07948e+03 -1.55794e+03
  7620    114.545  5.18571e+02 -2.07647e+03 -1.55790e+03
  7630    113.730  5.14882e+02 -2.07272e+03 -1.55784e+03
  7640    113.044  5.11776e+02 -2.07000e+03 -1.55822e+03
  7650    112.697  5.10205e+02 -2.06837e+03 -1.55816e+03
  7660    112.897  5.11109e+02 -2.06929e+03 -1.55818e+03
  7670    113.751  5.14978e+02 -2.07322e+03 -1.55824e+03
  7680    115.027  5.20754e+02 -2.07863e+03 -1.55788e+03
  7690    116.215  5.26130e+02 -2.08373e+03 -1.55760e+03
  7700    116.872  5.29107e+02 -2.08683e+03 -1.55772e+03
  7710    116.857  5.29037e+02 -2.08662e+03 -1.55758e+03
  7720    116.319  5.26604e+02 -2.08404e+03 -1.55744e+03
  7730    115.562  5.23174e+02 -2.08047e+03 -1.55730e+03
  7740    114.829  5.19855e+02 -2.07689e+03 -1.55704e+03
  7750    114.215  5.17079e+02 -2.07442e+03 -1.55734e+03
  7760    113.767  5.15050e+02 -2.07231e+03 -1.55726e+03
  7770    113.579  5.14199e+02 -2.07180e+03 -1.55760e+03
  7780    113.735  5.14903e+02 -2.07242e+03 -1.55752e+03
  7790    114.182  5.16928e+02 -2.07418e+03 -1.55726e+03
  7800    114.779  5.19628e+02 -2.07711e+03 -1.55748e+03
  7810    115.440  5.22624e+02 -2.08040e+03 -1.55778e+03
  7820    116.175  5.25949e+02 -2.08369e+03 -1.55774e+03
  7830    116.971  5.29556e+02 -2.08721e+03 -1.55766e+03
  7840    117.723  5.32956e+02 -2.09029e+03 -1.55734e+03
  7850    118.270  5.35434e+02 -2.09259e+03 -1.55716e+03
  7860    118.504  5.36492e+02 -2.09377e+03 -1.55728e+03
  7870    118.415  5.36091e+02 -2.09333e+03 -1.55724e+03
  7880    118.075  5.34551e+02 -2.09173e+03 -1.55718e+03
  7890    117.590  5.32354e+02 -2.08927e+03 -1.55692e+03
  7900    117.059  5.29955e+02 -2.08691e+03 -1.55696e+03
  7910    116.551  5.27652e+02 -2.08455e+03 -1.55690e+03
  7920    116.090  5.25564e+02 -2.08246e+03 -1.55690e+03
  7930    115.694  5.23771e+02 -2.08040e+03 -1.55663e+03
  7940    115.423  5.22548e+02 -2.07888e+03 -1.55633e+03
  7950    115.370  5.22307e+02 -2.07854e+03 -1.55623e+03
  7960    115.567  5.23200e+02 -2.07947e+03 -1.55627e+03
  7970    115.944  5.24903e+02 -2.08140e+03 -1.55649e+03
  7980    116.386  5.26904e+02 -2.08348e+03 -1.55657e+03
  7990    116.827  5.28901e+02 -2.08582e+03 -1.55692e+03
  8000    117.254  5.30837e+02 -2.08771e+03 -1.55687e+03
  8010    117.679  5.32759e+02 -2.08965e+03 -1.55689e+03
  8020    118.078  5.34567e+02 -2.09136e+03 -1.55679e+03
  8030    118.360  5.35842e+02 -2.09264e+03 -1.55680e+03
  8040    118.384  5.35949e+02 -2.09285e+03 -1.55690e+03
  8050    118.038  5.34384e+02 -2.09134e+03 -1.55696e+03
  8060    117.314  5.31108e+02 -2.08814e+03 -1.55704e+03
  8070    116.361  5.26791e+02 -2.08353e+03 -1.55673e+03
  8080    115.514  5.22957e+02 -2.07955e+03 -1.55659e+03
  8090    115.168  5.21393e+02 -2.07782e+03 -1.55643e+03
  8100    115.455  5.22692e+02 -2.07906e+03 -1.55637e+03
  8110    116.158  5.25874e+02 -2.08231e+03 -1.55643e+03
  8120    116.991  5.29643e+02 -2.08644e+03 -1.55679e+03
  8130    117.746  5.33061e+02 -2.08994e+03 -1.55688e+03
  8140    118.269  5.35429e+02 -2.09204e+03 -1.55661e+03
  8150    118.490  5.36433e+02 -2.09309e+03 -1.55665e+03
  8160    118.512  5.36531e+02 -2.09333e+03 -1.55679e+03
  8170    118.529  5.36609e+02 -2.09330e+03 -1.55669e+03
  8180    118.568  5.36786e+02 -2.09354e+03 -1.55675e+03
  8190    118.391  5.35985e+02 -2.09282e+03 -1.55684e+03
  8200    117.720  5.32944e+02 -2.08976e+03 -1.55682e+03
  8210    116.427  5.27090e+02 -2.08377e+03 -1.55668e+03
  8220    114.577  5.18714e+02 -2.07549e+03 -1.55678e+03
  8230    112.443  5.09055e+02 -2.06577e+03 -1.55671e+03
  8240    110.487  5.00198e+02 -2.05687e+03 -1.55667e+03
  8250    109.126  4.94038e+02 -2.05079e+03 -1.55675e+03
  8260    108.444  4.90949e+02 -2.04786e+03 -1.55691e+03
  8270    108.239  4.90024e+02 -2.04688e+03 -1.55685e+03
  8280    108.338  4.90470e+02 -2.04748e+03 -1.55701e+03
  8290    108.709  4.92150e+02 -2.04924e+03 -1.55709e+03
  8300    109.372  4.95151e+02 -2.05257e+03 -1.55742e+03
  8310    110.275  4.99238e+02 -2.05698e+03 -1.55774e+03
  8320    111.270  5.03745e+02 -2.06154e+03 -1.55780e+03
  8330    112.186  5.07890e+02 -2.06567e+03 -1.55778e+03
  8340    112.912  5.11179e+02 -2.06884e+03 -1.55766e+03
  8350    113.456  5.13641e+02 -2.07142e+03 -1.55778e+03
  8360    113.924  5.15761e+02 -2.07350e+03 -1.55774e+03
  8370    114.437  5.18081e+02 -2.07576e+03 -1.55768e+03
  8380    115.037  5.20797e+02 -2.07845e+03 -1.55766e+03
  8390    115.685  5.23733e+02 -2.08129e+03 -1.55756e+03
  8400    116.331  5.26654e+02 -2.08389e+03 -1.55724e+03
  8410    116.956  5.29487e+02 -2.08648e+03 -1.55699e+03
  8420    117.556  5.32202e+02 -2.08926e+03 -1.55705e+03
  8430    118.091  5.34626e+02 -2.09158e+03 -1.55695e+03
  8440    118.471  5.36345e+02 -2.09354e+03 -1.55720e+03
  8450    118.569  5.36790e+02 -2.09411e+03 -1.55732e+03
  8460    118.286  5.35509e+02 -2.09289e+03 -1.55738e+03
  8470    117.622  5.32500e+02 -2.08966e+03 -1.55716e+03
  8480    116.720  5.28419e+02 -2.08535e+03 -1.55693e+03
  8490    115.825  5.24366e+02 -2.08124e+03 -1.55687e+03
  8500    115.157  5.21341e+02 -2.07783e+03 -1.55649e+03
  8510    114.847  5.19940e+02 -2.07637e+03 -1.55643e+03
  8520    114.943  5.20372e+02 -2.07684e+03 -1.55647e+03
  8530    115.419  5.22527e+02 -2.07892e+03 -1.55639e+03
  8540    116.202  5.26072e+02 -2.08234e+03 -1.55627e+03
  8550    117.191  5.30549e+02 -2.08692e+03 -1.55637e+03
  8560    118.284  5.35500e+02 -2.09193e+03 -1.55643e+03
  8570    119.409  5.40589e+02 -2.09684e+03 -1.55625e+03
  8580    120.482  5.45450e+02 -2.10164e+03 -1.55619e+03
  8590    121.370  5.49471e+02 -2.10560e+03 -1.55613e+03
  8600    121.911  5.51918e+02 -2.10797e+03 -1.55605e+03
  8610    121.975  5.52209e+02 -2.10798e+03 -1.55577e+03
  8620    121.498  5.50049e+02 -2.10578e+03 -1.55573e+03
  8630    120.496  5.45513e+02 -2.10157e+03 -1.55605e+03
  8640    119.069  5.39052e+02 -2.09498e+03 -1.55593e+03
  8650    117.399  5.31493e+02 -2.08758e+03 -1.55609e+03
  8660    115.727  5.23922e+02 -2.08005e+03 -1.55613e+03
  8670    114.286  5.17399e+02 -2.07347e+03 -1.55607e+03
  8680    113.221  5.12576e+02 -2.06871e+03 -1.55613e+03
  8690    112.551  5.09542e+02 -2.06577e+03 -1.55623e+03
  8700    112.186  5.07891e+02 -2.06408e+03 -1.55619e+03
  8710    111.979  5.06955e+02 -2.06337e+03 -1.55641e+03
  8720    111.804  5.06162e+02 -2.06254e+03 -1.55637e+03
  8730    111.629  5.05369e+02 -2.06198e+03 -1.55661e+03
  8740    111.510  5.04830e+02 -2.06136e+03 -1.55653e+03
  8750    111.493  5.04755e+02 -2.06121e+03 -1.55645e+03
  8760    111.541  5.04969e+02 -2.06146e+03 -1.55649e+03
  8770    111.575  5.05127e+02 -2.06150e+03 -1.55637e+03
  8780    111.603  5.05252e+02 -2.06168e+03 -1.55643e+03
  8790    111.780  5.06053e+02 -2.06267e+03 -1.55661e+03
  8800    112.330  5.08541e+02 -2.06503e+03 -1.55649e+03
  8810    113.343  5.13128e+02 -2.06944e+03 -1.55631e+03
  8820    114.684  5.19201e+02 -2.07545e+03 -1.55625e+03
  8830    116.085  5.25543e+02 -2.08186e+03 -1.55631e+03
  8840    117.318  5.31123e+02 -2.08748e+03 -1.55635e+03
  8850    118.281  5.35485e+02 -2.09194e+03 -1.55645e+03
  8860    118.980  5.38649e+02 -2.09466e+03 -1.55601e+03
  8870    119.442  5.40743e+02 -2.09685e+03 -1.55611e+03
  8880    119.674  5.41792e+02 -2.09760e+03 -1.55581e+03
  8890    119.652  5.41693e+02 -2.09738e+03 -1.55569e+03
  8900    119.335  5.40256e+02 -2.09591e+03 -1.55565e+03
  8910    118.681  5.37297e+02 -2.09317e+03 -1.55587e+03
  8920    117.669  5.32715e+02 -2.08871e+03 -1.55599e+03
  8930    116.316  5.26590e+02 -2.08256e+03 -1.55597e+03
  8940    114.725  5.19386e+02 -2.07518e+03 -1.55579e+03
  8950    113.140  5.12209e+02 -2.06802e+03 -1.55581e+03
  8960    111.943  5.06790e+02 -2.06268e+03 -1.55589e+03
  8970    111.496  5.04769e+02 -2.06036e+03 -1.55559e+03
  8980    111.908  5.06631e+02 -2.06206e+03 -1.55543e+03
  8990    112.947  5.11337e+02 -2.06653e+03 -1.55519e+03
  9000    114.235  5.17168e+02 -2.07242e+03 -1.55525e+03
  9010    115.478  5.22796e+02 -2.07827e+03 -1.55547e+03
  9020    116.538  5.27595e+02 -2.08300e+03 -1.55541e+03
  9030    117.356  5.31298e+02 -2.08701e+03 -1.55571e+03
  9040    117.846  5.33518e+02 -2.08953e+03 -1.55601e+03
  9050    117.894  5.33732e+02 -2.08995e+03 -1.55621e+03
  9060    117.443  5.31690e+02 -2.08804e+03 -1.55635e+03
  9070    116.579  5.27779e+02 -2.08389e+03 -1.55611e+03
  9080    115.517  5.22974e+02 -2.07923e+03 -1.55625e+03
  9090    114.537  5.18535e+02 -2.07497e+03 -1.55643e+03
  9100    113.909  5.15693e+02 -2.07210e+03 -1.55641e+03
  9110    113.818  5.15280e+02 -2.07183e+03 -1.55655e+03
  9120    114.279  5.17368e+02 -2.07382e+03 -1.55645e+03
  9130    115.146  5.21291e+02 -2.07800e+03 -1.55671e+03
  9140    116.200  5.26063e+02 -2.08266e+03 -1.55659e+03
  9150    117.244  5.30789e+02 -2.08770e+03 -1.55692e+03
  9160    118.126  5.34783e+02 -2.09152e+03 -1.55673e+03
  9170    118.732  5.37528e+02 -2.09438e+03 -1.55686e+03
  9180    118.995  5.38716e+02 -2.09561e+03 -1.55690e+03
  9190    118.933  5.38437e+02 -2.09523e+03 -1.55679e+03
  9200    118.698  5.37375e+02 -2.09401e+03 -1.55663e+03
  9210    118.503  5.36489e+02 -2.09302e+03 -1.55653e+03
  9220    118.413  5.36081e+02 -2.09265e+03 -1.55657e+03
  9230    118.256  5.35370e+02 -2.09196e+03 -1.55659e+03
  9240    117.792  5.33273e+02 -2.08997e+03 -1.55670e+03
  9250    116.925  5.29345e+02 -2.08602e+03 -1.55668e+03
  9260    115.716  5.23873e+02 -2.08049e+03 -1.55661e+03
  9270    114.330  5.17597e+02 -2.07435e+03 -1.55675e+03
  9280    112.989  5.11525e+02 -2.06800e+03 -1.55647e+03
  9290    111.958  5.06858e+02 -2.06309e+03 -1.55623e+03
  9300    111.518  5.04868e+02 -2.06104e+03 -1.55617e+03
  9310    111.856  5.06395e+02 -2.06243e+03 -1.55603e+03
  9320    112.879  5.11030e+02 -2.06692e+03 -1.55589e+03
  9330    114.197  5.16995e+02 -2.07303e+03 -1.55603e+03
  9340    115.321  5.22082e+02 -2.07836e+03 -1.55628e+03
  9350    115.953  5.24945e+02 -2.08102e+03 -1.55607e+03
  9360    116.164  5.25900e+02 -2.08189e+03 -1.55599e+03
  9370    116.188  5.26008e+02 -2.08206e+03 -1.55605e+03
  9380    116.027  5.25278e+02 -2.08151e+03 -1.55623e+03
  9390    115.542  5.23084e+02 -2.07934e+03 -1.55625e+03
  9400    114.822  5.19824e+02 -2.07610e+03 -1.55627e+03
  9410    114.200  5.17009e+02 -2.07336e+03 -1.55635e+03
  9420    114.009  5.16143e+02 -2.07253e+03 -1.55639e+03
  9430    114.372  5.17790e+02 -2.07412e+03 -1.55633e+03
  9440    115.184  5.21465e+02 -2.07790e+03 -1.55643e+03
  9450    116.213  5.26122e+02 -2.08248e+03 -1.55635e+03
  9460    117.237  5.30758e+02 -2.08703e+03 -1.55627e+03
  9470    118.081  5.34581e+02 -2.09079e+03 -1.55621e+03
  9480    118.596  5.36913e+02 -2.09323e+03 -1.55631e+03
  9490    118.667  5.37230e+02 -2.09362e+03 -1.55639e+03
  9500    118.236  5.35280e+02 -2.09163e+03 -1.55635e+03
  9510    117.336  5.31208e+02 -2.08764e+03 -1.55643e+03
  9520    116.138  5.25782e+02 -2.08211e+03 -1.55633e+03
  9530    114.993  5.20601e+02 -2.07697e+03 -1.55637e+03
  9540    114.304  5.17478e+02 -2.07361e+03 -1.55613e+03
  9550    114.184  5.16937e+02 -2.07311e+03 -1.55617e+03
  9560    114.323  5.17568e+02 -2.07382e+03 -1.55625e+03
  9570    114.287  5.17404e+02 -2.07358e+03 -1.55617e+03
  9580    113.849  5.15420e+02 -2.07171e+03 -1.55629e+03
  9590    113.065  5.11872e+02 -2.06845e+03 -1.55657e+03
  9600    112.186  5.07889e+02 -2.06444e+03 -1.55655e+03
  9610    111.522  5.04883e+02 -2.06160e+03 -1.55671e+03
  9620    111.332  5.04024e+02 -2.06094e+03 -1.55691e+03
  9630    111.732  5.05834e+02 -2.06279e+03 -1.55695e+03
  9640    112.681  5.10133e+02 -2.06729e+03 -1.55716e+03
  9650    114.012  5.16157e+02 -2.07317e+03 -1.55702e+03
  9660    115.448  5.22661e+02 -2.07944e+03 -1.55678e+03
  9670    116.667  5.28178e+02 -2.08487e+03 -1.55670e+03
  9680    117.395  5.31476e+02 -2.08831e+03 -1.55684e+03
  9690    117.555  5.32196e+02 -2.08869e+03 -1.55650e+03
  9700    117.282  5.30961e+02 -2.08756e+03 -1.55659e+03
  9710    116.815  5.28846e+02 -2.08572e+03 -1.55688e+03
  9720    116.383  5.26893e+02 -2.08385e+03 -1.55695e+03
  9730    116.140  5.25792e+02 -2.08273e+03 -1.55693e+03
  9740    116.078  5.25510e+02 -2.08210e+03 -1.55659e+03
  9750    116.012  5.25214e+02 -2.08145e+03 -1.55623e+03
  9760    115.683  5.23721e+02 -2.07990e+03 -1.55617e+03
  9770    114.902  5.20189e+02 -2.07648e+03 -1.55629e+03
  9780    113.686  5.14680e+02 -2.07087e+03 -1.55619e+03
  9790    112.330  5.08543e+02 -2.06481e+03 -1.55627e+03
  9800    111.382  5.04252e+02 -2.06058e+03 -1.55633e+03
  9810    111.376  5.04225e+02 -2.06042e+03 -1.55619e+03
  9820    112.528  5.09440e+02 -2.06573e+03 -1.55629e+03
  9830    114.683  5.19195e+02 -2.07573e+03 -1.55653e+03
  9840    117.493  5.31918e+02 -2.08847e+03 -1.55655e+03
  9850    120.559  5.45797e+02 -2.10227e+03 -1.55647e+03
  9860    123.439  5.58835e+02 -2.11553e+03 -1.55670e+03
  9870    125.687  5.69012e+02 -2.12569e+03 -1.55668e+03
  9880    126.993  5.74927e+02 -2.13176e+03 -1.55684e+03
  9890    127.341  5.76501e+02 -2.13338e+03 -1.55688e+03
  9900    126.979  5.74863e+02 -2.13174e+03 -1.55688e+03
  9910    126.215  5.71405e+02 -2.12850e+03 -1.55710e+03
  9920    125.253  5.67049e+02 -2.12400e+03 -1.55695e+03
  9930    124.265  5.62575e+02 -2.11959e+03 -1.55701e+03
  9940    123.504  5.59130e+02 -2.11628e+03 -1.55715e+03
  9950    123.192  5.57718e+02 -2.11495e+03 -1.55723e+03
  9960    123.303  5.58221e+02 -2.11558e+03 -1.55736e+03
  9970    123.539  5.59290e+02 -2.11651e+03 -1.55722e+03
  9980    123.513  5.59169e+02 -2.11665e+03 -1.55748e+03
  9990    122.928  5.56522e+02 -2.11406e+03 -1.55754e+03
