Step    T(K)      KE(kJ)        PE(kJ)       TotE(kJ)
     0      0.152  6.86131e-01 -1.63103e+03 -1.63034e+03
    10      0.244  1.10628e+00 -1.63145e+03 -1.63034e+03
    20      0.477  2.15742e+00 -1.63249e+03 -1.63033e+03
    30      0.845  3.82670e+00 -1.63414e+03 -1.63031e+03
    40      1.346  6.09434e+00 -1.63636e+03 -1.63027e+03
    50      1.974  8.93512e+00 -1.63912e+03 -1.63018e+03
    60      2.721  1.23203e+01 -1.64235e+03 -1.63003e+03
    70      3.583  1.62195e+01 -1.64602e+03 -1.62980e+03
    80      4.551  2.06034e+01 -1.65005e+03 -1.62945e+03
    90      5.620  2.54450e+01 -1.65440e+03 -1.62896e+03
   100      6.786  3.07223e+01 -1.65902e+03 -1.62829e+03
   110      8.045  3.64195e+01 -1.66384e+03 -1.62742e+03
   120      9.394  4.25282e+01 -1.66882e+03 -1.62629e+03
   130     10.834  4.90482e+01 -1.67393e+03 -1.62488e+03
   140     12.367  5.59888e+01 -1.67903e+03 -1.62304e+03
   150     13.997  6.33680e+01 -1.68427e+03 -1.62090e+03
   160     15.730  7.12122e+01 -1.68926e+03 -1.61804e+03
   170     17.574  7.95603e+01 -1.69409e+03 -1.61453e+03
   180     19.539  8.84560e+01 -1.69912e+03 -1.61067e+03
   190     21.635  9.79472e+01 -1.70410e+03 -1.60615e+03
   200     23.877  1.08095e+02 -1.70860e+03 -1.60050e+03
   210     26.279  1.18971e+02 -1.71201e+03 -1.59304e+03
   220     28.861  1.30659e+02 -1.71360e+03 -1.58294e+03
   230     31.640  1.43240e+02 -1.71705e+03 -1.57381e+03
   240     34.632  1.56785e+02 -1.72179e+03 -1.56501e+03
   250     37.855  1.71378e+02 -1.72687e+03 -1.55549e+03
   260     41.332  1.87118e+02 -1.73185e+03 -1.54473e+03
   270     45.085  2.04108e+02 -1.73672e+03 -1.53261e+03
   280     49.139  2.22463e+02 -1.74107e+03 -1.51861e+03
   290     53.522  2.42307e+02 -1.74461e+03 -1.50231e+03
   300     58.263  2.63771e+02 -1.74868e+03 -1.48491e+03
   310     63.391  2.86984e+02 -1.75265e+03 -1.46567e+03
   320     68.935  3.12086e+02 -1.75669e+03 -1.44460e+03
   330     74.930  3.39224e+02 -1.76028e+03 -1.42105e+03
   340     81.409  3.68558e+02 -1.76305e+03 -1.39450e+03
   350     88.410  4.00251e+02 -1.76513e+03 -1.36487e+03
   360     95.969  4.34474e+02 -1.76660e+03 -1.33213e+03
   370    104.124  4.71391e+02 -1.76805e+03 -1.29666e+03
   380    112.909  5.11166e+02 -1.76973e+03 -1.25856e+03
   390    122.361  5.53958e+02 -1.77063e+03 -1.21667e+03
   400    132.515  5.99924e+02 -1.77121e+03 -1.17129e+03
   410    143.401  6.49209e+02 -1.77129e+03 -1.12208e+03
   420    155.049  7.01940e+02 -1.77071e+03 -1.06877e+03
   430    167.479  7.58214e+02 -1.76950e+03 -1.01129e+03
   440    180.707  8.18101e+02 -1.76748e+03 -9.49379e+02
   450    194.737  8.81617e+02 -1.76514e+03 -8.83525e+02
   460    209.558  9.48715e+02 -1.76219e+03 -8.13474e+02
   470    225.143  1.01927e+03 -1.75846e+03 -7.39185e+02
   480    241.445  1.09308e+03 -1.75394e+03 -6.60867e+02
   490    258.392  1.16980e+03 -1.74893e+03 -5.79127e+02
   500    275.882  1.24898e+03 -1.74255e+03 -4.93568e+02
   510    293.780  1.33001e+03 -1.73553e+03 -4.05523e+02
   520    311.911  1.41209e+03 -1.72703e+03 -3.14940e+02
   530    330.062  1.49426e+03 -1.71774e+03 -2.23475e+02
   540    347.983  1.57540e+03 -1.70704e+03 -1.31641e+02
   550    365.394  1.65422e+03 -1.69460e+03 -4.03813e+01
   560    382.014  1.72946e+03 -1.68041e+03  4.90515e+01
   570    397.595  1.80000e+03 -1.66489e+03  1.35114e+02
   580    411.955  1.86501e+03 -1.64755e+03  2.17463e+02
   590    424.991  1.92403e+03 -1.62961e+03  2.94416e+02
   600    436.636  1.97675e+03 -1.61134e+03  3.65413e+02
   610    446.784  2.02269e+03 -1.59532e+03  4.27368e+02
   620    455.251  2.06103e+03 -1.58088e+03  4.80147e+02
   630    461.824  2.09078e+03 -1.56766e+03  5.23118e+02
   640    466.347  2.11126e+03 -1.55583e+03  5.55427e+02
   650    468.794  2.12234e+03 -1.54600e+03  5.76342e+02
   660    469.255  2.12442e+03 -1.53851e+03  5.85909e+02
   670    467.842  2.11802e+03 -1.53396e+03  5.84069e+02
   680    464.628  2.10348e+03 -1.53197e+03  5.71508e+02
   690    459.622  2.08081e+03 -1.53283e+03  5.47980e+02
   700    452.784  2.04985e+03 -1.53591e+03  5.13949e+02
   710    444.079  2.01044e+03 -1.54032e+03  4.70124e+02
   720    433.519  1.96264e+03 -1.54492e+03  4.17715e+02
   730    421.191  1.90683e+03 -1.54930e+03  3.57526e+02
   740    407.267  1.84379e+03 -1.55296e+03  2.90826e+02
   750    391.985  1.77460e+03 -1.55590e+03  2.18701e+02
   760    375.628  1.70055e+03 -1.55827e+03  1.42283e+02
   770    358.497  1.62300e+03 -1.55981e+03  6.31848e+01
   780    340.892  1.54329e+03 -1.56118e+03 -1.78892e+01
   790    323.094  1.46272e+03 -1.56219e+03 -9.94682e+01
   800    305.360  1.38243e+03 -1.56328e+03 -1.80846e+02
   810    287.911  1.30344e+03 -1.56459e+03 -2.61150e+02
   820    270.932  1.22657e+03 -1.56620e+03 -3.39628e+02
   830    254.568  1.15249e+03 -1.56839e+03 -4.15905e+02
   840    238.928  1.08168e+03 -1.57136e+03 -4.89675e+02
   850    224.083  1.01447e+03 -1.57480e+03 -5.60323e+02
   860    210.069  9.51028e+02 -1.57887e+03 -6.27839e+02
   870    196.895  8.91389e+02 -1.58324e+03 -6.91849e+02
   880    184.553  8.35512e+02 -1.58808e+03 -7.52569e+02
   890    173.018  7.83292e+02 -1.59326e+03 -8.09968e+02
   900    162.260  7.34589e+02 -1.59874e+03 -8.64154e+02
   910    152.245  6.89246e+02 -1.60451e+03 -9.15268e+02
   920    142.936  6.47102e+02 -1.61054e+03 -9.63435e+02
   930    134.297  6.07992e+02 -1.61633e+03 -1.00834e+03
   940    126.294  5.71761e+02 -1.62207e+03 -1.05031e+03
   950    118.893  5.38255e+02 -1.62787e+03 -1.08962e+03
   960    112.062  5.07329e+02 -1.63364e+03 -1.12631e+03
   970    105.769  4.78842e+02 -1.63958e+03 -1.16074e+03
   980     99.988  4.52668e+02 -1.64569e+03 -1.19302e+03
   990     94.692  4.28694e+02 -1.65178e+03 -1.22309e+03
  1000     89.860  4.06815e+02 -1.65790e+03 -1.25109e+03
  1010     85.470  3.86942e+02 -1.66433e+03 -1.27738e+03
  1020     81.506  3.68995e+02 -1.67100e+03 -1.30200e+03
  1030     77.950  3.52895e+02 -1.67803e+03 -1.32514e+03
  1040     74.782  3.38557e+02 -1.68536e+03 -1.34680e+03
  1050     71.983  3.25883e+02 -1.69313e+03 -1.36724e+03
  1060     69.528  3.14769e+02 -1.70137e+03 -1.38660e+03
  1070     67.392  3.05101e+02 -1.71015e+03 -1.40505e+03
  1080     65.551  2.96764e+02 -1.71896e+03 -1.42220e+03
  1090     63.978  2.89643e+02 -1.72827e+03 -1.43863e+03
  1100     62.650  2.83633e+02 -1.73799e+03 -1.45436e+03
  1110     61.545  2.78630e+02 -1.74801e+03 -1.46938e+03
  1120     60.642  2.74541e+02 -1.75833e+03 -1.48379e+03
  1130     59.920  2.71272e+02 -1.76875e+03 -1.49748e+03
  1140     59.361  2.68739e+02 -1.77956e+03 -1.51082e+03
  1150     58.945  2.66859e+02 -1.79055e+03 -1.52369e+03
  1160     58.659  2.65563e+02 -1.80156e+03 -1.53600e+03
  1170     58.488  2.64787e+02 -1.81269e+03 -1.54790e+03
  1180     58.419  2.64478e+02 -1.82375e+03 -1.55927e+03
  1190     58.443  2.64583e+02 -1.83480e+03 -1.57021e+03
  1200     58.548  2.65060e+02 -1.84586e+03 -1.58080e+03
  1210     58.726  2.65866e+02 -1.85680e+03 -1.59093e+03
  1220     58.968  2.66959e+02 -1.86773e+03 -1.60077e+03
  1230     59.263  2.68297e+02 -1.87857e+03 -1.61027e+03
  1240     59.602  2.69832e+02 -1.88925e+03 -1.61941e+03
  1250     59.974  2.71517e+02 -1.89958e+03 -1.62806e+03
  1260     60.369  2.73302e+02 -1.90955e+03 -1.63625e+03
  1270     60.774  2.75139e+02 -1.91921e+03 -1.64407e+03
  1280     61.181  2.76979e+02 -1.92871e+03 -1.65173e+03
  1290     61.578  2.78779e+02 -1.93795e+03 -1.65917e+03
  1300     61.958  2.80496e+02 -1.94668e+03 -1.66618e+03
  1310     62.312  2.82100e+02 -1.95488e+03 -1.67278e+03
  1320     62.636  2.83569e+02 -1.96259e+03 -1.67902e+03
  1330     62.930  2.84897e+02 -1.96980e+03 -1.68490e+03
  1340     63.194  2.86094e+02 -1.97640e+03 -1.69031e+03
  1350     63.437  2.87195e+02 -1.98247e+03 -1.69528e+03
  1360     63.670  2.88251e+02 -1.98793e+03 -1.69967e+03
  1370     63.910  2.89334e+02 -1.99296e+03 -1.70363e+03
  1380     64.175  2.90536e+02 -1.99784e+03 -1.70731e+03
  1390     64.490  2.91962e+02 -2.00280e+03 -1.71084e+03
  1400     64.878  2.93719e+02 -2.00756e+03 -1.71384e+03
  1410     65.363  2.95914e+02 -2.01223e+03 -1.71632e+03
  1420     65.966  2.98642e+02 -2.01712e+03 -1.71847e+03
  1430     66.703  3.01981e+02 -2.02211e+03 -1.72013e+03
  1440     67.588  3.05987e+02 -2.02738e+03 -1.72139e+03
  1450     68.625  3.10683e+02 -2.03297e+03 -1.72228e+03
  1460     69.812  3.16053e+02 -2.03878e+03 -1.72273e+03
  1470     71.134  3.22038e+02 -2.04493e+03 -1.72289e+03
  1480     72.570  3.28541e+02 -2.05115e+03 -1.72261e+03
  1490     74.094  3.35439e+02 -2.05744e+03 -1.72200e+03
  1500     75.678  3.42610e+02 -2.06339e+03 -1.72078e+03
  1510     77.298  3.49945e+02 -2.06897e+03 -1.71902e+03
  1520     78.938  3.57368e+02 -2.07435e+03 -1.71698e+03
  1530     80.589  3.64843e+02 -2.07939e+03 -1.71455e+03
  1540     82.251  3.72370e+02 -2.08367e+03 -1.71130e+03
  1550     83.932  3.79981e+02 -2.08772e+03 -1.70773e+03
  1560     85.642  3.87722e+02 -2.09148e+03 -1.70376e+03
  1570     87.391  3.95638e+02 -2.09474e+03 -1.69910e+03
  1580     89.185  4.03760e+02 -2.09783e+03 -1.69407e+03
  1590     91.029  4.12108e+02 -2.10077e+03 -1.68866e+03
  1600     92.923  4.20683e+02 -2.10311e+03 -1.68242e+03
  1610     94.866  4.29478e+02 -2.10513e+03 -1.67565e+03
  1620     96.855  4.38483e+02 -2.10699e+03 -1.66851e+03
  1630     98.890  4.47696e+02 -2.10855e+03 -1.66086e+03
  1640    100.971  4.57118e+02 -2.10982e+03 -1.65270e+03
  1650    103.101  4.66759e+02 -2.11065e+03 -1.64389e+03
  1660    105.282  4.76635e+02 -2.11116e+03 -1.63452e+03
  1670    107.518  4.86760e+02 -2.11120e+03 -1.62444e+03
  1680    109.812  4.97144e+02 -2.11118e+03 -1.61403e+03
  1690    112.163  5.07787e+02 -2.11111e+03 -1.60333e+03
  1700    114.573  5.18697e+02 -2.11023e+03 -1.59154e+03
  1710    117.044  5.29885e+02 -2.10917e+03 -1.57929e+03
  1720    119.583  5.41378e+02 -2.10802e+03 -1.56664e+03
  1730    122.195  5.53206e+02 -2.10668e+03 -1.55347e+03
  1740    124.889  5.65400e+02 -2.10504e+03 -1.53964e+03
  1750    127.668  5.77982e+02 -2.10318e+03 -1.52520e+03
  1760    130.532  5.90946e+02 -2.10122e+03 -1.51027e+03
  1770    133.468  6.04242e+02 -2.09906e+03 -1.49482e+03
  1780    136.458  6.17777e+02 -2.09675e+03 -1.47897e+03
  1790    139.474  6.31432e+02 -2.09389e+03 -1.46246e+03
  1800    142.485  6.45063e+02 -2.09060e+03 -1.44554e+03
  1810    145.464  6.58549e+02 -2.08656e+03 -1.42802e+03
  1820    148.392  6.71804e+02 -2.08183e+03 -1.41002e+03
  1830    151.260  6.84788e+02 -2.07658e+03 -1.39180e+03
  1840    154.068  6.97502e+02 -2.07092e+03 -1.37342e+03
  1850    156.824  7.09978e+02 -2.06449e+03 -1.35452e+03
  1860    159.535  7.22252e+02 -2.05757e+03 -1.33532e+03
  1870    162.206  7.34342e+02 -2.05031e+03 -1.31597e+03
  1880    164.832  7.46232e+02 -2.04267e+03 -1.29644e+03
  1890    167.402  7.57866e+02 -2.03472e+03 -1.27686e+03
  1900    169.894  7.69150e+02 -2.02633e+03 -1.25718e+03
  1910    172.284  7.79966e+02 -2.01754e+03 -1.23758e+03
  1920    174.545  7.90205e+02 -2.00804e+03 -1.21783e+03
  1930    176.669  7.99821e+02 -1.99802e+03 -1.19820e+03
  1940    178.667  8.08866e+02 -1.98779e+03 -1.17892e+03
  1950    180.575  8.17501e+02 -1.97711e+03 -1.15961e+03
  1960    182.442  8.25958e+02 -1.96652e+03 -1.14056e+03
  1970    184.319  8.34456e+02 -1.95617e+03 -1.12172e+03
  1980    186.232  8.43112e+02 -1.94643e+03 -1.10332e+03
  1990    188.178  8.51924e+02 -1.93722e+03 -1.08530e+03
  2000    190.140  8.60808e+02 -1.92828e+03 -1.06747e+03
  2010    192.107  8.69712e+02 -1.91972e+03 -1.05001e+03
  2020    194.091  8.78694e+02 -1.91150e+03 -1.03281e+03
  2030    196.130  8.87924e+02 -1.90403e+03 -1.01611e+03
  2040    198.268  8.97603e+02 -1.89757e+03 -9.99963e+02
  2050    200.534  9.07864e+02 -1.89238e+03 -9.84521e+02
  2060    202.928  9.18699e+02 -1.88839e+03 -9.69687e+02
  2070    205.418  9.29973e+02 -1.88534e+03 -9.55364e+02
  2080    207.959  9.41478e+02 -1.88321e+03 -9.41728e+02
  2090    210.509  9.53021e+02 -1.88208e+03 -9.29058e+02
  2100    213.039  9.64476e+02 -1.88147e+03 -9.16996e+02
  2110    215.533  9.75765e+02 -1.88147e+03 -9.05708e+02
  2120    217.967  9.86785e+02 -1.88221e+03 -8.95422e+02
  2130    220.293  9.97315e+02 -1.88358e+03 -8.86265e+02
  2140    222.435  1.00701e+03 -1.88502e+03 -8.78005e+02
  2150    224.299  1.01545e+03 -1.88662e+03 -8.71171e+02
  2160    225.804  1.02227e+03 -1.88767e+03 -8.65402e+02
  2170    226.903  1.02724e+03 -1.88817e+03 -8.60931e+02
  2180    227.590  1.03035e+03 -1.88811e+03 -8.57759e+02
  2190    227.892  1.03172e+03 -1.88779e+03 -8.56070e+02
  2200    227.836  1.03146e+03 -1.88718e+03 -8.55717e+02
  2210    227.438  1.02966e+03 -1.88602e+03 -8.56357e+02
  2220    226.698  1.02631e+03 -1.88471e+03 -8.58399e+02
  2230    225.621  1.02144e+03 -1.88332e+03 -8.61880e+02
  2240    224.250  1.01523e+03 -1.88169e+03 -8.66462e+02
  2250    222.676  1.00811e+03 -1.88043e+03 -8.72322e+02
  2260    221.014  1.00058e+03 -1.87979e+03 -8.79214e+02
  2270    219.342  9.93011e+02 -1.88020e+03 -8.87190e+02
  2280    217.671  9.85446e+02 -1.88195e+03 -8.96506e+02
  2290    215.946  9.77636e+02 -1.88467e+03 -9.07036e+02
  2300    214.088  9.69224e+02 -1.88755e+03 -9.18328e+02
  2310    212.031  9.59913e+02 -1.89066e+03 -9.30746e+02
  2320    209.740  9.49542e+02 -1.89312e+03 -9.43583e+02
  2330    207.211  9.38090e+02 -1.89536e+03 -9.57268e+02
  2340    204.455  9.25612e+02 -1.89764e+03 -9.72024e+02
  2350    201.494  9.12210e+02 -1.89960e+03 -9.87390e+02
  2360    198.361  8.98024e+02 -1.90117e+03 -1.00314e+03
  2370    195.096  8.83244e+02 -1.90254e+03 -1.01930e+03
  2380    191.758  8.68132e+02 -1.90399e+03 -1.03586e+03
  2390    188.412  8.52982e+02 -1.90587e+03 -1.05289e+03
  2400    185.118  8.38071e+02 -1.90799e+03 -1.06992e+03
  2410    181.929  8.23633e+02 -1.91095e+03 -1.08732e+03
  2420    178.881  8.09833e+02 -1.91441e+03 -1.10458e+03
  2430    175.992  7.96756e+02 -1.91881e+03 -1.12205e+03
  2440    173.259  7.84382e+02 -1.92377e+03 -1.13939e+03
  2450    170.649  7.72568e+02 -1.92973e+03 -1.15716e+03
  2460    168.116  7.61101e+02 -1.93591e+03 -1.17481e+03
  2470    165.614  7.49773e+02 -1.94224e+03 -1.19247e+03
  2480    163.116  7.38462e+02 -1.94847e+03 -1.21001e+03
  2490    160.614  7.27136e+02 -1.95458e+03 -1.22744e+03
  2500    158.118  7.15835e+02 -1.96059e+03 -1.24475e+03
  2510    155.648  7.04654e+02 -1.96642e+03 -1.26177e+03
  2520    153.234  6.93727e+02 -1.97247e+03 -1.27874e+03
  2530    150.909  6.83201e+02 -1.97863e+03 -1.29543e+03
  2540    148.698  6.73190e+02 -1.98497e+03 -1.31178e+03
  2550    146.608  6.63727e+02 -1.99178e+03 -1.32805e+03
  2560    144.621  6.54732e+02 -1.99884e+03 -1.34411e+03
  2570    142.697  6.46020e+02 -2.00595e+03 -1.35993e+03
  2580    140.783  6.37354e+02 -2.01284e+03 -1.37548e+03
  2590    138.826  6.28498e+02 -2.01903e+03 -1.39053e+03
  2600    136.792  6.19287e+02 -2.02473e+03 -1.40544e+03
  2610    134.662  6.09647e+02 -2.02958e+03 -1.41994e+03
  2620    132.447  5.99619e+02 -2.03346e+03 -1.43384e+03
  2630    130.174  5.89329e+02 -2.03701e+03 -1.44768e+03
  2640    127.884  5.78958e+02 -2.03972e+03 -1.46077e+03
  2650    125.619  5.68706e+02 -2.04211e+03 -1.47341e+03
  2660    123.422  5.58759e+02 -2.04431e+03 -1.48555e+03
  2670    121.327  5.49274e+02 -2.04671e+03 -1.49744e+03
  2680    119.356  5.40353e+02 -2.04904e+03 -1.50869e+03
  2690    117.521  5.32044e+02 -2.05165e+03 -1.51961e+03
  2700    115.821  5.24349e+02 -2.05416e+03 -1.52981e+03
  2710    114.246  5.17219e+02 -2.05696e+03 -1.53974e+03
  2720    112.776  5.10562e+02 -2.06000e+03 -1.54944e+03
  2730    111.384  5.04263e+02 -2.06279e+03 -1.55853e+03
  2740    110.046  4.98204e+02 -2.06543e+03 -1.56722e+03
  2750    108.742  4.92298e+02 -2.06772e+03 -1.57542e+03
  2760    107.460  4.86497e+02 -2.06969e+03 -1.58319e+03
  2770    106.204  4.80810e+02 -2.07137e+03 -1.59056e+03
  2780    104.987  4.75300e+02 -2.07289e+03 -1.59759e+03
  2790    103.833  4.70074e+02 -2.07420e+03 -1.60413e+03
  2800    102.769  4.65258e+02 -2.07550e+03 -1.61024e+03
  2810    101.824  4.60980e+02 -2.07693e+03 -1.61595e+03
  2820    101.021  4.57343e+02 -2.07872e+03 -1.62137e+03
  2830    100.373  4.54412e+02 -2.08072e+03 -1.62631e+03
  2840     99.886  4.52206e+02 -2.08291e+03 -1.63070e+03
  2850     99.553  4.50700e+02 -2.08532e+03 -1.63462e+03
  2860     99.365  4.49849e+02 -2.08826e+03 -1.63841e+03
  2870     99.309  4.49593e+02 -2.09118e+03 -1.64159e+03
  2880     99.374  4.49888e+02 -2.09426e+03 -1.64437e+03
  2890     99.555  4.50708e+02 -2.09735e+03 -1.64664e+03
  2900     99.848  4.52035e+02 -2.10070e+03 -1.64867e+03
  2910    100.251  4.53860e+02 -2.10406e+03 -1.65020e+03
  2920    100.760  4.56162e+02 -2.10771e+03 -1.65155e+03
  2930    101.364  4.58896e+02 -2.11153e+03 -1.65263e+03
  2940    102.046  4.61984e+02 -2.11541e+03 -1.65342e+03
  2950    102.780  4.65308e+02 -2.11889e+03 -1.65358e+03
  2960    103.536  4.68729e+02 -2.12231e+03 -1.65358e+03
  2970    104.279  4.72094e+02 -2.12529e+03 -1.65319e+03
  2980    104.980  4.75268e+02 -2.12763e+03 -1.65236e+03
  2990    105.618  4.78157e+02 -2.12926e+03 -1.65110e+03
  3000    106.185  4.80721e+02 -2.13030e+03 -1.64958e+03
  3010    106.685  4.82985e+02 -2.13060e+03 -1.64762e+03
  3020    107.134  4.85022e+02 -2.13024e+03 -1.64521e+03
  3030    107.558  4.86941e+02 -2.12944e+03 -1.64250e+03
  3040    107.982  4.88857e+02 -2.12840e+03 -1.63954e+03
  3050    108.428  4.90879e+02 -2.12693e+03 -1.63605e+03
  3060    108.920  4.93105e+02 -2.12546e+03 -1.63236e+03
  3070    109.476  4.95621e+02 -2.12383e+03 -1.62821e+03
  3080    110.112  4.98501e+02 -2.12235e+03 -1.62385e+03
  3090    110.842  5.01807e+02 -2.12105e+03 -1.61924e+03
  3100    111.677  5.05586e+02 -2.11978e+03 -1.61419e+03
  3110    112.622  5.09864e+02 -2.11874e+03 -1.60888e+03
  3120    113.678  5.14644e+02 -2.11766e+03 -1.60301e+03
  3130    114.838  5.19897e+02 -2.11661e+03 -1.59672e+03
  3140    116.093  5.25578e+02 -2.11550e+03 -1.58993e+03
  3150    117.432  5.31640e+02 -2.11466e+03 -1.58302e+03
  3160    118.844  5.38034e+02 -2.11372e+03 -1.57568e+03
  3170    120.320  5.44716e+02 -2.11265e+03 -1.56793e+03
  3180    121.852  5.51653e+02 -2.11154e+03 -1.55989e+03
  3190    123.435  5.58820e+02 -2.11004e+03 -1.55122e+03
  3200    125.061  5.66181e+02 -2.10829e+03 -1.54211e+03
  3210    126.718  5.73682e+02 -2.10685e+03 -1.53317e+03
  3220    128.387  5.81238e+02 -2.10455e+03 -1.52331e+03
  3230    130.044  5.88737e+02 -2.10216e+03 -1.51343e+03
  3240    131.657  5.96041e+02 -2.09917e+03 -1.50313e+03
  3250    133.197  6.03013e+02 -2.09563e+03 -1.49261e+03
  3260    134.640  6.09548e+02 -2.09131e+03 -1.48176e+03
  3270    135.976  6.15596e+02 -2.08618e+03 -1.47058e+03
  3280    137.211  6.21184e+02 -2.08052e+03 -1.45933e+03
  3290    138.366  6.26413e+02 -2.07408e+03 -1.44767e+03
  3300    139.479  6.31452e+02 -2.06740e+03 -1.43594e+03
  3310    140.597  6.36512e+02 -2.06069e+03 -1.42418e+03
  3320    141.769  6.41819e+02 -2.05401e+03 -1.41219e+03
  3330    143.047  6.47607e+02 -2.04749e+03 -1.39988e+03
  3340    144.487  6.54125e+02 -2.04123e+03 -1.38710e+03
  3350    146.145  6.61631e+02 -2.03610e+03 -1.37447e+03
  3360    148.078  6.70381e+02 -2.03191e+03 -1.36153e+03
  3370    150.330  6.80578e+02 -2.02886e+03 -1.34829e+03
  3380    152.919  6.92299e+02 -2.02717e+03 -1.33487e+03
  3390    155.825  7.05454e+02 -2.02660e+03 -1.32114e+03
  3400    158.995  7.19805e+02 -2.02716e+03 -1.30736e+03
  3410    162.361  7.35044e+02 -2.02829e+03 -1.29325e+03
  3420    165.855  7.50864e+02 -2.02994e+03 -1.27908e+03
  3430    169.413  7.66970e+02 -2.03175e+03 -1.26478e+03
  3440    172.961  7.83035e+02 -2.03346e+03 -1.25042e+03
  3450    176.417  7.98681e+02 -2.03498e+03 -1.23630e+03
  3460    179.700  8.13541e+02 -2.03572e+03 -1.22217e+03
  3470    182.752  8.27358e+02 -2.03538e+03 -1.20802e+03
  3480    185.550  8.40028e+02 -2.03417e+03 -1.19415e+03
  3490    188.100  8.51570e+02 -2.03202e+03 -1.18045e+03
  3500    190.417  8.62061e+02 -2.02943e+03 -1.16737e+03
  3510    192.517  8.71566e+02 -2.02642e+03 -1.15485e+03
  3520    194.401  8.80097e+02 -2.02260e+03 -1.14250e+03
  3530    196.053  8.87577e+02 -2.01830e+03 -1.13073e+03
  3540    197.438  8.93846e+02 -2.01331e+03 -1.11946e+03
  3550    198.513  8.98713e+02 -2.00767e+03 -1.10896e+03
  3560    199.243  9.02017e+02 -2.00108e+03 -1.09907e+03
  3570    199.622  9.03733e+02 -1.99390e+03 -1.09017e+03
  3580    199.681  9.03999e+02 -1.98567e+03 -1.08167e+03
  3590    199.490  9.03138e+02 -1.97713e+03 -1.07399e+03
  3600    199.147  9.01582e+02 -1.96884e+03 -1.06725e+03
  3610    198.752  8.99794e+02 -1.96088e+03 -1.06108e+03
  3620    198.391  8.98161e+02 -1.95377e+03 -1.05561e+03
  3630    198.114  8.96904e+02 -1.94803e+03 -1.05113e+03
  3640    197.929  8.96068e+02 -1.94330e+03 -1.04723e+03
  3650    197.808  8.95522e+02 -1.93959e+03 -1.04407e+03
  3660    197.695  8.95012e+02 -1.93637e+03 -1.04136e+03
  3670    197.517  8.94205e+02 -1.93388e+03 -1.03968e+03
  3680    197.198  8.92760e+02 -1.93143e+03 -1.03867e+03
  3690    196.679  8.90408e+02 -1.92883e+03 -1.03842e+03
  3700    195.932  8.87026e+02 -1.92563e+03 -1.03860e+03
  3710    194.989  8.82758e+02 -1.92233e+03 -1.03957e+03
  3720    193.957  8.78088e+02 -1.91923e+03 -1.04114e+03
  3730    193.008  8.73790e+02 -1.91725e+03 -1.04346e+03
  3740    192.320  8.70675e+02 -1.91699e+03 -1.04631e+03
  3750    192.003  8.69241e+02 -1.91907e+03 -1.04983e+03
  3760    192.038  8.69399e+02 -1.92329e+03 -1.05389e+03
  3770    192.288  8.70532e+02 -1.92898e+03 -1.05844e+03
  3780    192.575  8.71832e+02 -1.93579e+03 -1.06396e+03
  3790    192.761  8.72672e+02 -1.94240e+03 -1.06973e+03
  3800    192.795  8.72827e+02 -1.94914e+03 -1.07631e+03
  3810    192.708  8.72433e+02 -1.95602e+03 -1.08359e+03
  3820    192.549  8.71714e+02 -1.96295e+03 -1.09124e+03
  3830    192.331  8.70727e+02 -1.97053e+03 -1.09980e+03
  3840    192.002  8.69236e+02 -1.97801e+03 -1.10878e+03
  3850    191.462  8.66794e+02 -1.98538e+03 -1.11859e+03
  3860    190.605  8.62910e+02 -1.99158e+03 -1.12867e+03
  3870    189.348  8.57221e+02 -1.99650e+03 -1.13928e+03
  3880    187.657  8.49567e+02 -1.99987e+03 -1.15030e+03
  3890    185.544  8.39997e+02 -2.00200e+03 -1.16200e+03
  3900    183.055  8.28732e+02 -2.00256e+03 -1.17383e+03
  3910    180.266  8.16104e+02 -2.00230e+03 -1.18620e+03
  3920    177.259  8.02491e+02 -2.00121e+03 -1.19872e+03
  3930    174.113  7.88249e+02 -1.99957e+03 -1.21132e+03
  3940    170.894  7.73675e+02 -1.99787e+03 -1.22419e+03
  3950    167.651  7.58996e+02 -1.99592e+03 -1.23693e+03
  3960    164.427  7.44396e+02 -1.99382e+03 -1.24942e+03
  3970    161.260  7.30062e+02 -1.99203e+03 -1.26196e+03
  3980    158.204  7.16224e+02 -1.99061e+03 -1.27438e+03
  3990    155.318  7.03161e+02 -1.98986e+03 -1.28670e+03
  4000    152.660  6.91127e+02 -1.99017e+03 -1.29905e+03
  4010    150.268  6.80297e+02 -1.99152e+03 -1.31122e+03
  4020    148.151  6.70711e+02 -1.99371e+03 -1.32300e+03
  4030    146.283  6.62258e+02 -1.99679e+03 -1.33453e+03
  4040    144.616  6.54710e+02 -2.00064e+03 -1.34593e+03
  4050    143.087  6.47788e+02 -2.00486e+03 -1.35707e+03
  4060    141.637  6.41222e+02 -2.00953e+03 -1.36831e+03
  4070    140.215  6.34786e+02 -2.01413e+03 -1.37935e+03
  4080    138.782  6.28297e+02 -2.01834e+03 -1.39005e+03
  4090    137.309  6.21631e+02 -2.02227e+03 -1.40064e+03
  4100    135.779  6.14704e+02 -2.02573e+03 -1.41102e+03
  4110    134.182  6.07471e+02 -2.02828e+03 -1.42081e+03
  4120    132.515  5.99925e+02 -2.03031e+03 -1.43039e+03
  4130    130.781  5.92076e+02 -2.03183e+03 -1.43975e+03
  4140    128.986  5.83947e+02 -2.03284e+03 -1.44890e+03
  4150    127.136  5.75575e+02 -2.03307e+03 -1.45749e+03
  4160    125.246  5.67016e+02 -2.03286e+03 -1.46584e+03
  4170    123.330  5.58345e+02 -2.03200e+03 -1.47365e+03
  4180    121.412  5.49660e+02 -2.03087e+03 -1.48121e+03
  4190    119.519  5.41089e+02 -2.02970e+03 -1.48861e+03
  4200    117.684  5.32780e+02 -2.02824e+03 -1.49546e+03
  4210    115.946  5.24914e+02 -2.02678e+03 -1.50186e+03
  4220    114.350  5.17687e+02 -2.02546e+03 -1.50778e+03
  4230    112.939  5.11299e+02 -2.02462e+03 -1.51332e+03
  4240    111.753  5.05929e+02 -2.02464e+03 -1.51871e+03
  4250    110.821  5.01713e+02 -2.02529e+03 -1.52358e+03
  4260    110.164  4.98737e+02 -2.02713e+03 -1.52839e+03
  4270    109.786  4.97027e+02 -2.02948e+03 -1.53245e+03
  4280    109.681  4.96552e+02 -2.03293e+03 -1.53638e+03
  4290    109.830  4.97226e+02 -2.03737e+03 -1.54014e+03
  4300    110.201  4.98907e+02 -2.04237e+03 -1.54346e+03
  4310    110.751  5.01395e+02 -2.04763e+03 -1.54623e+03
  4320    111.425  5.04448e+02 -2.05338e+03 -1.54894e+03
  4330    112.165  5.07795e+02 -2.05884e+03 -1.55105e+03
  4340    112.908  5.11162e+02 -2.06439e+03 -1.55323e+03
  4350    113.601  5.14299e+02 -2.06919e+03 -1.55489e+03
  4360    114.197  5.16997e+02 -2.07320e+03 -1.55621e+03
  4370    114.664  5.19110e+02 -2.07651e+03 -1.55740e+03
  4380    114.985  5.20561e+02 -2.07856e+03 -1.55800e+03
  4390    115.157  5.21344e+02 -2.07967e+03 -1.55833e+03
  4400    115.199  5.21534e+02 -2.08020e+03 -1.55867e+03
  4410    115.142  5.21272e+02 -2.07991e+03 -1.55864e+03
  4420    115.027  5.20754e+02 -2.07895e+03 -1.55819e+03
  4430    114.907  5.20208e+02 -2.07761e+03 -1.55740e+03
  4440    114.831  5.19864e+02 -2.07607e+03 -1.55620e+03
  4450    114.844  5.19923e+02 -2.07464e+03 -1.55472e+03
  4460    114.978  5.20531e+02 -2.07354e+03 -1.55301e+03
  4470    115.251  5.21767e+02 -2.07272e+03 -1.55095e+03
  4480    115.668  5.23654e+02 -2.07216e+03 -1.54851e+03
  4490    116.221  5.26159e+02 -2.07211e+03 -1.54595e+03
  4500    116.897  5.29218e+02 -2.07256e+03 -1.54334e+03
  4510    117.675  5.32741e+02 -2.07300e+03 -1.54026e+03
  4520    118.530  5.36611e+02 -2.07340e+03 -1.53678e+03
  4530    119.433  5.40702e+02 -2.07374e+03 -1.53304e+03
  4540    120.357  5.44884e+02 -2.07385e+03 -1.52897e+03
  4550    121.274  5.49037e+02 -2.07361e+03 -1.52458e+03
  4560    122.163  5.53059e+02 -2.07276e+03 -1.51970e+03
  4570    123.008  5.56883e+02 -2.07150e+03 -1.51461e+03
  4580    123.802  5.60480e+02 -2.06964e+03 -1.50916e+03
  4590    124.552  5.63874e+02 -2.06736e+03 -1.50349e+03
  4600    125.273  5.67141e+02 -2.06472e+03 -1.49758e+03
  4610    125.994  5.70404e+02 -2.06183e+03 -1.49143e+03
  4620    126.750  5.73825e+02 -2.05881e+03 -1.48498e+03
  4630    127.580  5.77585e+02 -2.05590e+03 -1.47832e+03
  4640    128.522  5.81850e+02 -2.05341e+03 -1.47157e+03
  4650    129.605  5.86753e+02 -2.05122e+03 -1.46447e+03
  4660    130.844  5.92359e+02 -2.04922e+03 -1.45687e+03
  4670    132.237  5.98667e+02 -2.04790e+03 -1.44924e+03
  4680    133.770  6.05606e+02 -2.04685e+03 -1.44124e+03
  4690    135.416  6.13059e+02 -2.04594e+03 -1.43288e+03
  4700    137.148  6.20901e+02 -2.04549e+03 -1.42459e+03
  4710    138.943  6.29025e+02 -2.04492e+03 -1.41589e+03
  4720    140.788  6.37378e+02 -2.04432e+03 -1.40694e+03
  4730    142.685  6.45968e+02 -2.04371e+03 -1.39774e+03
  4740    144.650  6.54865e+02 -2.04329e+03 -1.38842e+03
  4750    146.703  6.64160e+02 -2.04329e+03 -1.37913e+03
  4760    148.859  6.73917e+02 -2.04296e+03 -1.36904e+03
  4770    151.113  6.84125e+02 -2.04330e+03 -1.35917e+03
  4780    153.445  6.94681e+02 -2.04372e+03 -1.34904e+03
  4790    155.818  7.05422e+02 -2.04408e+03 -1.33865e+03
  4800    158.186  7.16145e+02 -2.04436e+03 -1.32821e+03
  4810    160.508  7.26655e+02 -2.04453e+03 -1.31788e+03
  4820    162.744  7.36781e+02 -2.04422e+03 -1.30744e+03
  4830    164.863  7.46374e+02 -2.04343e+03 -1.29706e+03
  4840    166.836  7.55306e+02 -2.04191e+03 -1.28661e+03
  4850    168.635  7.63448e+02 -2.03992e+03 -1.27647e+03
  4860    170.231  7.70675e+02 -2.03701e+03 -1.26633e+03
  4870    171.595  7.76850e+02 -2.03321e+03 -1.25636e+03
  4880    172.693  7.81822e+02 -2.02847e+03 -1.24665e+03
  4890    173.492  7.85436e+02 -2.02240e+03 -1.23697e+03
  4900    173.965  7.87580e+02 -2.01509e+03 -1.22751e+03
  4910    174.113  7.88250e+02 -2.00681e+03 -1.21856e+03
  4920    173.971  7.87604e+02 -1.99766e+03 -1.21005e+03
  4930    173.614  7.85991e+02 -1.98779e+03 -1.20179e+03
  4940    173.161  7.83937e+02 -1.97784e+03 -1.19390e+03
  4950    172.743  7.82045e+02 -1.96832e+03 -1.18627e+03
  4960    172.489  7.80895e+02 -1.95997e+03 -1.17907e+03
  4970    172.497  7.80933e+02 -1.95320e+03 -1.17227e+03
  4980    172.831  7.82446e+02 -1.94792e+03 -1.16547e+03
  4990    173.517  7.85550e+02 -1.94470e+03 -1.15915e+03
  5000    174.546  7.90208e+02 -1.94309e+03 -1.15288e+03
  5010    175.884  7.96268e+02 -1.94326e+03 -1.14700e+03
  5020    177.479  8.03485e+02 -1.94479e+03 -1.14130e+03
  5030    179.262  8.11559e+02 -1.94751e+03 -1.13595e+03
  5040    181.158  8.20143e+02 -1.95115e+03 -1.13101e+03
  5050    183.079  8.28840e+02 -1.95537e+03 -1.12653e+03
  5060    184.932  8.37227e+02 -1.95954e+03 -1.12232e+03
  5070    186.628  8.44906e+02 -1.96314e+03 -1.11823e+03
  5080    188.095  8.51550e+02 -1.96650e+03 -1.11495e+03
  5090    189.288  8.56950e+02 -1.96930e+03 -1.11234e+03
  5100    190.188  8.61023e+02 -1.97101e+03 -1.10998e+03
  5110    190.802  8.63802e+02 -1.97223e+03 -1.10843e+03
  5120    191.163  8.65437e+02 -1.97284e+03 -1.10740e+03
  5130    191.327  8.66180e+02 -1.97320e+03 -1.10702e+03
  5140    191.362  8.66340e+02 -1.97335e+03 -1.10701e+03
  5150    191.334  8.66211e+02 -1.97403e+03 -1.10782e+03
  5160    191.286  8.65993e+02 -1.97508e+03 -1.10908e+03
  5170    191.224  8.65714e+02 -1.97661e+03 -1.11090e+03
  5180    191.111  8.65205e+02 -1.97869e+03 -1.11349e+03
  5190    190.871  8.64118e+02 -1.98072e+03 -1.11660e+03
  5200    190.407  8.62014e+02 -1.98219e+03 -1.12018e+03
  5210    189.623  8.58464e+02 -1.98289e+03 -1.12442e+03
  5220    188.445  8.53135e+02 -1.98254e+03 -1.12940e+03
  5230    186.836  8.45848e+02 -1.98064e+03 -1.13479e+03
  5240    184.793  8.36597e+02 -1.97714e+03 -1.14055e+03
  5250    182.354  8.25558e+02 -1.97240e+03 -1.14685e+03
  5260    179.593  8.13058e+02 -1.96654e+03 -1.15348e+03
  5270    176.610  7.99555e+02 -1.95974e+03 -1.16018e+03
  5280    173.527  7.85594e+02 -1.95269e+03 -1.16710e+03
  5290    170.471  7.71761e+02 -1.94592e+03 -1.17416e+03
  5300    167.568  7.58616e+02 -1.93998e+03 -1.18136e+03
  5310    164.918  7.46622e+02 -1.93566e+03 -1.18903e+03
  5320    162.592  7.36090e+02 -1.93256e+03 -1.19647e+03
  5330    160.617  7.27149e+02 -1.93127e+03 -1.20413e+03
  5340    158.985  7.19761e+02 -1.93154e+03 -1.21178e+03
  5350    157.657  7.13749e+02 -1.93318e+03 -1.21943e+03
  5360    156.568  7.08820e+02 -1.93599e+03 -1.22717e+03
  5370    155.642  7.04626e+02 -1.93953e+03 -1.23490e+03
  5380    154.803  7.00827e+02 -1.94348e+03 -1.24265e+03
  5390    153.992  6.97154e+02 -1.94775e+03 -1.25059e+03
  5400    153.174  6.93453e+02 -1.95163e+03 -1.25818e+03
  5410    152.343  6.89689e+02 -1.95563e+03 -1.26594e+03
  5420    151.508  6.85913e+02 -1.95945e+03 -1.27354e+03
  5430    150.691  6.82212e+02 -1.96323e+03 -1.28101e+03
  5440    149.906  6.78660e+02 -1.96734e+03 -1.28868e+03
  5450    149.162  6.75288e+02 -1.97152e+03 -1.29623e+03
  5460    148.449  6.72060e+02 -1.97591e+03 -1.30385e+03
  5470    147.748  6.68888e+02 -1.98025e+03 -1.31136e+03
  5480    147.031  6.65643e+02 -1.98438e+03 -1.31874e+03
  5490    146.266  6.62178e+02 -1.98814e+03 -1.32596e+03
  5500    145.421  6.58354e+02 -1.99169e+03 -1.33334e+03
  5510    144.472  6.54056e+02 -1.99464e+03 -1.34058e+03
  5520    143.407  6.49235e+02 -1.99679e+03 -1.34755e+03
  5530    142.233  6.43922e+02 -1.99844e+03 -1.35451e+03
  5540    140.980  6.38247e+02 -1.99974e+03 -1.36149e+03
  5550    139.694  6.32427e+02 -2.00080e+03 -1.36838e+03
  5560    138.436  6.26729e+02 -2.00161e+03 -1.37488e+03
  5570    137.259  6.21402e+02 -2.00260e+03 -1.38120e+03
  5580    136.199  6.16605e+02 -2.00383e+03 -1.38722e+03
  5590    135.267  6.12383e+02 -2.00550e+03 -1.39312e+03
  5600    134.451  6.08690e+02 -2.00772e+03 -1.39903e+03
  5610    133.731  6.05432e+02 -2.01004e+03 -1.40461e+03
  5620    133.085  6.02504e+02 -2.01238e+03 -1.40988e+03
  5630    132.491  5.99817e+02 -2.01494e+03 -1.41513e+03
  5640    131.935  5.97299e+02 -2.01752e+03 -1.42022e+03
  5650    131.404  5.94897e+02 -2.01994e+03 -1.42505e+03
  5660    130.897  5.92598e+02 -2.02225e+03 -1.42965e+03
  5670    130.416  5.90421e+02 -2.02461e+03 -1.43419e+03
  5680    129.973  5.88417e+02 -2.02694e+03 -1.43852e+03
  5690    129.583  5.86653e+02 -2.02917e+03 -1.44252e+03
  5700    129.260  5.85190e+02 -2.03132e+03 -1.44613e+03
  5710    129.014  5.84073e+02 -2.03363e+03 -1.44956e+03
  5720    128.849  5.83330e+02 -2.03646e+03 -1.45313e+03
  5730    128.767  5.82957e+02 -2.03910e+03 -1.45614e+03
  5740    128.759  5.82919e+02 -2.04184e+03 -1.45893e+03
  5750    128.811  5.83155e+02 -2.04470e+03 -1.46154e+03
  5760    128.903  5.83571e+02 -2.04757e+03 -1.46400e+03
  5770    129.008  5.84046e+02 -2.05017e+03 -1.46612e+03
  5780    129.097  5.84451e+02 -2.05272e+03 -1.46827e+03
  5790    129.145  5.84669e+02 -2.05502e+03 -1.47035e+03
  5800    129.134  5.84620e+02 -2.05690e+03 -1.47229e+03
  5810    129.056  5.84267e+02 -2.05798e+03 -1.47372e+03
  5820    128.915  5.83629e+02 -2.05875e+03 -1.47512e+03
  5830    128.725  5.82769e+02 -2.05897e+03 -1.47620e+03
  5840    128.504  5.81766e+02 -2.05865e+03 -1.47688e+03
  5850    128.269  5.80703e+02 -2.05840e+03 -1.47770e+03
  5860    128.037  5.79651e+02 -2.05771e+03 -1.47806e+03
  5870    127.817  5.78656e+02 -2.05691e+03 -1.47825e+03
  5880    127.617  5.77753e+02 -2.05586e+03 -1.47810e+03
  5890    127.444  5.76966e+02 -2.05463e+03 -1.47766e+03
  5900    127.301  5.76321e+02 -2.05356e+03 -1.47724e+03
  5910    127.195  5.75842e+02 -2.05238e+03 -1.47654e+03
  5920    127.132  5.75554e+02 -2.05121e+03 -1.47566e+03
  5930    127.120  5.75499e+02 -2.05026e+03 -1.47476e+03
  5940    127.170  5.75728e+02 -2.04911e+03 -1.47338e+03
  5950    127.299  5.76310e+02 -2.04833e+03 -1.47202e+03
  5960    127.525  5.77336e+02 -2.04775e+03 -1.47041e+03
  5970    127.874  5.78913e+02 -2.04714e+03 -1.46823e+03
  5980    128.365  5.81139e+02 -2.04700e+03 -1.46586e+03
  5990    129.016  5.84083e+02 -2.04754e+03 -1.46345e+03
  6000    129.828  5.87760e+02 -2.04858e+03 -1.46082e+03
  6010    130.792  5.92123e+02 -2.05002e+03 -1.45790e+03
  6020    131.884  5.97066e+02 -2.05168e+03 -1.45462e+03
  6030    133.073  6.02450e+02 -2.05364e+03 -1.45119e+03
  6040    134.328  6.08132e+02 -2.05579e+03 -1.44766e+03
  6050    135.621  6.13988e+02 -2.05790e+03 -1.44391e+03
  6060    136.930  6.19911e+02 -2.06015e+03 -1.44024e+03
  6070    138.232  6.25809e+02 -2.06220e+03 -1.43639e+03
  6080    139.511  6.31598e+02 -2.06372e+03 -1.43213e+03
  6090    140.748  6.37198e+02 -2.06493e+03 -1.42773e+03
  6100    141.930  6.42548e+02 -2.06594e+03 -1.42339e+03
  6110    143.048  6.47609e+02 -2.06648e+03 -1.41887e+03
  6120    144.102  6.52383e+02 -2.06648e+03 -1.41410e+03
  6130    145.101  6.56904e+02 -2.06597e+03 -1.40906e+03
  6140    146.058  6.61238e+02 -2.06534e+03 -1.40410e+03
  6150    146.991  6.65461e+02 -2.06453e+03 -1.39906e+03
  6160    147.917  6.69652e+02 -2.06355e+03 -1.39390e+03
  6170    148.852  6.73885e+02 -2.06286e+03 -1.38898e+03
  6180    149.809  6.78221e+02 -2.06201e+03 -1.38379e+03
  6190    150.801  6.82709e+02 -2.06155e+03 -1.37885e+03
  6200    151.833  6.87381e+02 -2.06119e+03 -1.37381e+03
  6210    152.904  6.92232e+02 -2.06084e+03 -1.36860e+03
  6220    154.006  6.97218e+02 -2.06069e+03 -1.36347e+03
  6230    155.118  7.02252e+02 -2.06049e+03 -1.35824e+03
  6240    156.215  7.07222e+02 -2.06027e+03 -1.35305e+03
  6250    157.272  7.12005e+02 -2.06003e+03 -1.34802e+03
  6260    158.263  7.16493e+02 -2.05913e+03 -1.34264e+03
  6270    159.172  7.20605e+02 -2.05811e+03 -1.33750e+03
  6280    159.987  7.24297e+02 -2.05687e+03 -1.33257e+03
  6290    160.710  7.27570e+02 -2.05516e+03 -1.32759e+03
  6300    161.350  7.30467e+02 -2.05339e+03 -1.32292e+03
  6310    161.925  7.33069e+02 -2.05120e+03 -1.31813e+03
  6320    162.459  7.35488e+02 -2.04919e+03 -1.31371e+03
  6330    162.979  7.37841e+02 -2.04722e+03 -1.30938e+03
  6340    163.507  7.40232e+02 -2.04525e+03 -1.30502e+03
  6350    164.058  7.42729e+02 -2.04367e+03 -1.30094e+03
  6360    164.636  7.45343e+02 -2.04227e+03 -1.29693e+03
  6370    165.228  7.48023e+02 -2.04098e+03 -1.29296e+03
  6380    165.808  7.50650e+02 -2.03984e+03 -1.28919e+03
  6390    166.339  7.53052e+02 -2.03879e+03 -1.28574e+03
  6400    166.770  7.55004e+02 -2.03741e+03 -1.28240e+03
  6410    167.046  7.56255e+02 -2.03547e+03 -1.27921e+03
  6420    167.113  7.56559e+02 -2.03291e+03 -1.27635e+03
  6430    166.927  7.55718e+02 -2.02938e+03 -1.27366e+03
  6440    166.465  7.53627e+02 -2.02492e+03 -1.27129e+03
  6450    165.736  7.50324e+02 -2.01937e+03 -1.26905e+03
  6460    164.783  7.46009e+02 -2.01322e+03 -1.26722e+03
  6470    163.683  7.41030e+02 -2.00638e+03 -1.26535e+03
  6480    162.537  7.35841e+02 -1.99959e+03 -1.26375e+03
  6490    161.455  7.30943e+02 -1.99342e+03 -1.26247e+03
  6500    160.539  7.26794e+02 -1.98788e+03 -1.26108e+03
  6510    159.863  7.23734e+02 -1.98362e+03 -1.25988e+03
  6520    159.465  7.21933e+02 -1.98082e+03 -1.25888e+03
  6530    159.338  7.21360e+02 -1.97936e+03 -1.25800e+03
  6540    159.435  7.21800e+02 -1.97905e+03 -1.25725e+03
  6550    159.680  7.22907e+02 -1.97963e+03 -1.25673e+03
  6560    159.981  7.24272e+02 -1.98039e+03 -1.25612e+03
  6570    160.251  7.25494e+02 -1.98116e+03 -1.25567e+03
  6580    160.417  7.26244e+02 -1.98150e+03 -1.25526e+03
  6590    160.430  7.26302e+02 -1.98128e+03 -1.25498e+03
  6600    160.269  7.25572e+02 -1.98035e+03 -1.25478e+03
  6610    159.941  7.24090e+02 -1.97895e+03 -1.25486e+03
  6620    159.485  7.22023e+02 -1.97694e+03 -1.25492e+03
  6630    158.955  7.19627e+02 -1.97494e+03 -1.25531e+03
  6640    158.423  7.17215e+02 -1.97310e+03 -1.25589e+03
  6650    157.952  7.15085e+02 -1.97147e+03 -1.25638e+03
  6660    157.596  7.13471e+02 -1.97020e+03 -1.25673e+03
  6670    157.383  7.12510e+02 -1.96991e+03 -1.25740e+03
  6680    157.329  7.12262e+02 -1.97042e+03 -1.25816e+03
  6690    157.433  7.12737e+02 -1.97158e+03 -1.25885e+03
  6700    157.695  7.13923e+02 -1.97370e+03 -1.25978e+03
  6710    158.110  7.15801e+02 -1.97647e+03 -1.26067e+03
  6720    158.668  7.18327e+02 -1.97996e+03 -1.26163e+03
  6730    159.345  7.21391e+02 -1.98431e+03 -1.26292e+03
  6740    160.096  7.24789e+02 -1.98894e+03 -1.26415e+03
  6750    160.857  7.28235e+02 -1.99392e+03 -1.26568e+03
  6760    161.550  7.31373e+02 -1.99867e+03 -1.26729e+03
  6770    162.096  7.33844e+02 -2.00295e+03 -1.26911e+03
  6780    162.426  7.35341e+02 -2.00640e+03 -1.27106e+03
  6790    162.499  7.35672e+02 -2.00855e+03 -1.27288e+03
  6800    162.300  7.34767e+02 -2.00993e+03 -1.27517e+03
  6810    161.836  7.32668e+02 -2.01021e+03 -1.27754e+03
  6820    161.137  7.29504e+02 -2.00933e+03 -1.27983e+03
  6830    160.242  7.25450e+02 -2.00787e+03 -1.28242e+03
  6840    159.196  7.20715e+02 -2.00593e+03 -1.28522e+03
  6850    158.048  7.15520e+02 -2.00358e+03 -1.28806e+03
  6860    156.849  7.10089e+02 -2.00107e+03 -1.29098e+03
  6870    155.641  7.04622e+02 -1.99856e+03 -1.29394e+03
  6880    154.464  6.99292e+02 -1.99627e+03 -1.29697e+03
  6890    153.350  6.94248e+02 -1.99415e+03 -1.29990e+03
  6900    152.326  6.89616e+02 -1.99266e+03 -1.30304e+03
  6910    151.419  6.85508e+02 -1.99156e+03 -1.30605e+03
  6920    150.652  6.82037e+02 -1.99114e+03 -1.30910e+03
  6930    150.047  6.79297e+02 -1.99134e+03 -1.31204e+03
  6940    149.620  6.77365e+02 -1.99242e+03 -1.31505e+03
  6950    149.382  6.76284e+02 -1.99445e+03 -1.31817e+03
  6960    149.327  6.76038e+02 -1.99713e+03 -1.32110e+03
  6970    149.432  6.76514e+02 -2.00083e+03 -1.32431e+03
  6980    149.654  6.77516e+02 -2.00498e+03 -1.32747e+03
  6990    149.936  6.78795e+02 -2.00909e+03 -1.33030e+03
  7000    150.227  6.80113e+02 -2.01333e+03 -1.33322e+03
  7010    150.486  6.81285e+02 -2.01748e+03 -1.33620e+03
  7020    150.688  6.82201e+02 -2.02149e+03 -1.33929e+03
  7030    150.824  6.82814e+02 -2.02512e+03 -1.34231e+03
  7040    150.890  6.83113e+02 -2.02831e+03 -1.34520e+03
  7050    150.883  6.83083e+02 -2.03126e+03 -1.34818e+03
  7060    150.798  6.82694e+02 -2.03380e+03 -1.35110e+03
  7070    150.620  6.81892e+02 -2.03579e+03 -1.35389e+03
  7080    150.337  6.80608e+02 -2.03733e+03 -1.35673e+03
  7090    149.933  6.78782e+02 -2.03848e+03 -1.35969e+03
  7100    149.403  6.76382e+02 -2.03887e+03 -1.36249e+03
  7110    148.745  6.73402e+02 -2.03891e+03 -1.36551e+03
  7120    147.966  6.69876e+02 -2.03839e+03 -1.36851e+03
  7130    147.077  6.65850e+02 -2.03729e+03 -1.37144e+03
  7140    146.100  6.61426e+02 -2.03567e+03 -1.37425e+03
  7150    145.072  6.56774e+02 -2.03353e+03 -1.37676e+03
  7160    144.058  6.52182e+02 -2.03187e+03 -1.37969e+03
  7170    143.144  6.48044e+02 -2.03025e+03 -1.38220e+03
  7180    142.429  6.44808e+02 -2.02955e+03 -1.38474e+03
  7190    141.991  6.42827e+02 -2.03014e+03 -1.38731e+03
  7200    141.856  6.42212e+02 -2.03180e+03 -1.38958e+03
  7210    141.983  6.42790e+02 -2.03454e+03 -1.39175e+03
  7220    142.296  6.44206e+02 -2.03812e+03 -1.39392e+03
  7230    142.711  6.46085e+02 -2.04209e+03 -1.39600e+03
  7240    143.164  6.48138e+02 -2.04625e+03 -1.39811e+03
  7250    143.615  6.50180e+02 -2.05033e+03 -1.40015e+03
  7260    144.037  6.52088e+02 -2.05426e+03 -1.40217e+03
  7270    144.404  6.53750e+02 -2.05782e+03 -1.40407e+03
  7280    144.691  6.55048e+02 -2.06093e+03 -1.40589e+03
  7290    144.869  6.55854e+02 -2.06332e+03 -1.40747e+03
  7300    144.912  6.56049e+02 -2.06510e+03 -1.40905e+03
  7310    144.799  6.55537e+02 -2.06609e+03 -1.41056e+03
  7320    144.514  6.54246e+02 -2.06629e+03 -1.41204e+03
  7330    144.050  6.52147e+02 -2.06563e+03 -1.41348e+03
  7340    143.411  6.49255e+02 -2.06421e+03 -1.41495e+03
  7350    142.609  6.45621e+02 -2.06205e+03 -1.41642e+03
  7360    141.666  6.41355e+02 -2.05930e+03 -1.41795e+03
  7370    140.620  6.36616e+02 -2.05564e+03 -1.41903e+03
  7380    139.518  6.31628e+02 -2.05179e+03 -1.42016e+03
  7390    138.423  6.26671e+02 -2.04768e+03 -1.42101e+03
  7400    137.406  6.22068e+02 -2.04365e+03 -1.42158e+03
  7410    136.541  6.18154e+02 -2.04052e+03 -1.42237e+03
  7420    135.892  6.15212e+02 -2.03796e+03 -1.42275e+03
  7430    135.500  6.13438e+02 -2.03636e+03 -1.42293e+03
  7440    135.381  6.12898e+02 -2.03603e+03 -1.42313e+03
  7450    135.515  6.13508e+02 -2.03662e+03 -1.42311e+03
  7460    135.858  6.15061e+02 -2.03800e+03 -1.42294e+03
  7470    136.351  6.17291e+02 -2.03997e+03 -1.42268e+03
  7480    136.935  6.19933e+02 -2.04221e+03 -1.42228e+03
  7490    137.560  6.22763e+02 -2.04458e+03 -1.42181e+03
  7500    138.189  6.25613e+02 -2.04685e+03 -1.42124e+03
  7510    138.794  6.28353e+02 -2.04875e+03 -1.42040e+03
  7520    139.353  6.30881e+02 -2.05049e+03 -1.41961e+03
  7530    139.848  6.33121e+02 -2.05151e+03 -1.41839e+03
  7540    140.271  6.35038e+02 -2.05222e+03 -1.41718e+03
  7550    140.625  6.36641e+02 -2.05268e+03 -1.41604e+03
  7560    140.921  6.37981e+02 -2.05261e+03 -1.41463e+03
  7570    141.178  6.39143e+02 -2.05231e+03 -1.41316e+03
  7580    141.416  6.40222e+02 -2.05172e+03 -1.41150e+03
  7590    141.656  6.41311e+02 -2.05131e+03 -1.41000e+03
  7600    141.915  6.42482e+02 -2.05068e+03 -1.40820e+03
  7610    142.203  6.43785e+02 -2.04988e+03 -1.40610e+03
  7620    142.524  6.45239e+02 -2.04932e+03 -1.40408e+03
  7630    142.876  6.46831e+02 -2.04885e+03 -1.40202e+03
  7640    143.251  6.48531e+02 -2.04830e+03 -1.39977e+03
  7650    143.645  6.50313e+02 -2.04800e+03 -1.39769e+03
  7660    144.053  6.52161e+02 -2.04757e+03 -1.39541e+03
  7670    144.478  6.54086e+02 -2.04706e+03 -1.39297e+03
  7680    144.927  6.56116e+02 -2.04666e+03 -1.39055e+03
  7690    145.402  6.58266e+02 -2.04631e+03 -1.38804e+03
  7700    145.900  6.60520e+02 -2.04595e+03 -1.38543e+03
  7710    146.409  6.62824e+02 -2.04575e+03 -1.38293e+03
  7720    146.912  6.65103e+02 -2.04520e+03 -1.38009e+03
  7730    147.391  6.67272e+02 -2.04471e+03 -1.37743e+03
  7740    147.835  6.69283e+02 -2.04388e+03 -1.37460e+03
  7750    148.243  6.71131e+02 -2.04289e+03 -1.37176e+03
  7760    148.626  6.72865e+02 -2.04193e+03 -1.36906e+03
  7770    149.004  6.74574e+02 -2.04053e+03 -1.36596e+03
  7780    149.399  6.76361e+02 -2.03958e+03 -1.36322e+03
  7790    149.831  6.78317e+02 -2.03869e+03 -1.36038e+03
  7800    150.311  6.80491e+02 -2.03830e+03 -1.35780e+03
  7810    150.838  6.82880e+02 -2.03780e+03 -1.35492e+03
  7820    151.398  6.85412e+02 -2.03756e+03 -1.35214e+03
  7830    151.959  6.87952e+02 -2.03722e+03 -1.34927e+03
  7840    152.485  6.90332e+02 -2.03675e+03 -1.34642e+03
  7850    152.938  6.92386e+02 -2.03603e+03 -1.34365e+03
  7860    153.291  6.93981e+02 -2.03460e+03 -1.34062e+03
  7870    153.525  6.95040e+02 -2.03291e+03 -1.33787e+03
  7880    153.634  6.95535e+02 -2.03060e+03 -1.33507e+03
  7890    153.618  6.95464e+02 -2.02769e+03 -1.33223e+03
  7900    153.479  6.94835e+02 -2.02419e+03 -1.32935e+03
  7910    153.220  6.93663e+02 -2.02068e+03 -1.32702e+03
  7920    152.847  6.91973e+02 -2.01660e+03 -1.32463e+03
  7930    152.372  6.89822e+02 -2.01185e+03 -1.32203e+03
  7940    151.819  6.87318e+02 -2.00666e+03 -1.31935e+03
  7950    151.224  6.84624e+02 -2.00158e+03 -1.31695e+03
  7960    150.634  6.81954e+02 -1.99660e+03 -1.31464e+03
  7970    150.100  6.79538e+02 -1.99189e+03 -1.31235e+03
  7980    149.668  6.77583e+02 -1.98728e+03 -1.30970e+03
  7990    149.370  6.76231e+02 -1.98356e+03 -1.30733e+03
  8000    149.211  6.75510e+02 -1.98059e+03 -1.30508e+03
  8010    149.172  6.75336e+02 -1.97802e+03 -1.30268e+03
  8020    149.218  6.75542e+02 -1.97563e+03 -1.30009e+03
  8030    149.304  6.75932e+02 -1.97364e+03 -1.29770e+03
  8040    149.390  6.76322e+02 -1.97149e+03 -1.29517e+03
  8050    149.448  6.76584e+02 -1.96925e+03 -1.29266e+03
  8060    149.459  6.76637e+02 -1.96675e+03 -1.29011e+03
  8070    149.420  6.76457e+02 -1.96387e+03 -1.28741e+03
  8080    149.336  6.76077e+02 -1.96090e+03 -1.28482e+03
  8090    149.230  6.75596e+02 -1.95793e+03 -1.28233e+03
  8100    149.139  6.75187e+02 -1.95479e+03 -1.27961e+03
  8110    149.113  6.75069e+02 -1.95218e+03 -1.27711e+03
  8120    149.203  6.75477e+02 -1.95004e+03 -1.27457e+03
  8130    149.454  6.76612e+02 -1.94862e+03 -1.27201e+03
  8140    149.885  6.78564e+02 -1.94804e+03 -1.26948e+03
  8150    150.489  6.81296e+02 -1.94829e+03 -1.26700e+03
  8160    151.233  6.84665e+02 -1.94901e+03 -1.26434e+03
  8170    152.076  6.88482e+02 -1.95026e+03 -1.26177e+03
  8180    152.984  6.92593e+02 -1.95174e+03 -1.25915e+03
  8190    153.940  6.96920e+02 -1.95350e+03 -1.25658e+03
  8200    154.941  7.01452e+02 -1.95560e+03 -1.25414e+03
  8210    155.993  7.06215e+02 -1.95760e+03 -1.25138e+03
  8220    157.100  7.11226e+02 -1.96034e+03 -1.24912e+03
  8230    158.253  7.16447e+02 -1.96316e+03 -1.24671e+03
  8240    159.424  7.21749e+02 -1.96624e+03 -1.24449e+03
  8250    160.563  7.26907e+02 -1.96897e+03 -1.24206e+03
  8260    161.609  7.31642e+02 -1.97159e+03 -1.23995e+03
  8270    162.501  7.35679e+02 -1.97366e+03 -1.23798e+03
  8280    163.190  7.38797e+02 -1.97505e+03 -1.23625e+03
  8290    163.648  7.40872e+02 -1.97551e+03 -1.23464e+03
  8300    163.870  7.41874e+02 -1.97513e+03 -1.23325e+03
  8310    163.869  7.41873e+02 -1.97370e+03 -1.23183e+03
  8320    163.681  7.41019e+02 -1.97158e+03 -1.23056e+03
  8330    163.351  7.39527e+02 -1.96903e+03 -1.22950e+03
  8340    162.935  7.37645e+02 -1.96637e+03 -1.22872e+03
  8350    162.490  7.35631e+02 -1.96380e+03 -1.22817e+03
  8360    162.076  7.33753e+02 -1.96129e+03 -1.22754e+03
  8370    161.755  7.32302e+02 -1.95927e+03 -1.22696e+03
  8380    161.600  7.31598e+02 -1.95825e+03 -1.22665e+03
  8390    161.678  7.31954e+02 -1.95851e+03 -1.22655e+03
  8400    162.043  7.33605e+02 -1.95996e+03 -1.22636e+03
  8410    162.707  7.36612e+02 -1.96302e+03 -1.22641e+03
  8420    163.634  7.40807e+02 -1.96761e+03 -1.22680e+03
  8430    164.739  7.45812e+02 -1.97325e+03 -1.22744e+03
  8440    165.917  7.51144e+02 -1.97937e+03 -1.22823e+03
  8450    167.062  7.56329e+02 -1.98546e+03 -1.22914e+03
  8460    168.089  7.60975e+02 -1.99122e+03 -1.23024e+03
  8470    168.929  7.64781e+02 -1.99639e+03 -1.23161e+03
  8480    169.532  7.67508e+02 -2.00090e+03 -1.23339e+03
  8490    169.852  7.68956e+02 -2.00419e+03 -1.23523e+03
  8500    169.853  7.68962e+02 -2.00639e+03 -1.23743e+03
  8510    169.517  7.67442e+02 -2.00729e+03 -1.23985e+03
  8520    168.849  7.64418e+02 -2.00684e+03 -1.24242e+03
  8530    167.882  7.60040e+02 -2.00507e+03 -1.24502e+03
  8540    166.667  7.54541e+02 -2.00244e+03 -1.24790e+03
  8550    165.256  7.48153e+02 -1.99915e+03 -1.25100e+03
  8560    163.684  7.41035e+02 -1.99537e+03 -1.25433e+03
  8570    161.973  7.33289e+02 -1.99125e+03 -1.25796e+03
  8580    160.151  7.25040e+02 -1.98657e+03 -1.26153e+03
  8590    158.270  7.16522e+02 -1.98169e+03 -1.26517e+03
  8600    156.414  7.08121e+02 -1.97689e+03 -1.26877e+03
  8610    154.691  7.00320e+02 -1.97250e+03 -1.27218e+03
  8620    153.203  6.93586e+02 -1.96948e+03 -1.27589e+03
  8630    152.030  6.88273e+02 -1.96798e+03 -1.27971e+03
  8640    151.206  6.84545e+02 -1.96810e+03 -1.28356e+03
  8650    150.726  6.82369e+02 -1.96967e+03 -1.28731e+03
  8660    150.546  6.81555e+02 -1.97269e+03 -1.29113e+03
  8670    150.606  6.81829e+02 -1.97677e+03 -1.29494e+03
  8680    150.842  6.82896e+02 -1.98141e+03 -1.29852e+03
  8690    151.193  6.84483e+02 -1.98700e+03 -1.30251e+03
  8700    151.604  6.86343e+02 -1.99275e+03 -1.30641e+03
  8710    152.023  6.88243e+02 -1.99852e+03 -1.31027e+03
  8720    152.401  6.89953e+02 -2.00410e+03 -1.31415e+03
  8730    152.687  6.91251e+02 -2.00947e+03 -1.31822e+03
  8740    152.840  6.91943e+02 -2.01407e+03 -1.32212e+03
  8750    152.828  6.91888e+02 -2.01809e+03 -1.32620e+03
  8760    152.635  6.91014e+02 -2.02124e+03 -1.33023e+03
  8770    152.261  6.89319e+02 -2.02355e+03 -1.33423e+03
  8780    151.716  6.86854e+02 -2.02521e+03 -1.33835e+03
  8790    151.021  6.83707e+02 -2.02614e+03 -1.34243e+03
  8800    150.198  6.79981e+02 -2.02666e+03 -1.34668e+03
  8810    149.272  6.75789e+02 -2.02634e+03 -1.35055e+03
  8820    148.267  6.71239e+02 -2.02566e+03 -1.35442e+03
  8830    147.204  6.66424e+02 -2.02493e+03 -1.35850e+03
  8840    146.099  6.61423e+02 -2.02379e+03 -1.36236e+03
  8850    144.968  6.56304e+02 -2.02261e+03 -1.36631e+03
  8860    143.826  6.51133e+02 -2.02132e+03 -1.37019e+03
  8870    142.689  6.45985e+02 -2.01990e+03 -1.37392e+03
  8880    141.580  6.40965e+02 -2.01821e+03 -1.37725e+03
  8890    140.525  6.36190e+02 -2.01690e+03 -1.38071e+03
  8900    139.548  6.31767e+02 -2.01572e+03 -1.38396e+03
  8910    138.662  6.27756e+02 -2.01501e+03 -1.38726e+03
  8920    137.869  6.24163e+02 -2.01446e+03 -1.39030e+03
  8930    137.157  6.20940e+02 -2.01389e+03 -1.39295e+03
  8940    136.511  6.18017e+02 -2.01376e+03 -1.39574e+03
  8950    135.919  6.15336e+02 -2.01359e+03 -1.39826e+03
  8960    135.375  6.12873e+02 -2.01351e+03 -1.40064e+03
  8970    134.882  6.10640e+02 -2.01344e+03 -1.40280e+03
  8980    134.446  6.08668e+02 -2.01358e+03 -1.40491e+03
  8990    134.076  6.06992e+02 -2.01384e+03 -1.40685e+03
  9000    133.777  6.05636e+02 -2.01415e+03 -1.40851e+03
  9010    133.550  6.04612e+02 -2.01510e+03 -1.41049e+03
  9020    133.399  6.03928e+02 -2.01601e+03 -1.41208e+03
  9030    133.324  6.03586e+02 -2.01672e+03 -1.41313e+03
  9040    133.320  6.03570e+02 -2.01775e+03 -1.41418e+03
  9050    133.383  6.03854e+02 -2.01892e+03 -1.41506e+03
  9060    133.500  6.04386e+02 -2.02028e+03 -1.41589e+03
  9070    133.659  6.05103e+02 -2.02136e+03 -1.41626e+03
  9080    133.846  6.05949e+02 -2.02251e+03 -1.41656e+03
  9090    134.052  6.06884e+02 -2.02398e+03 -1.41709e+03
  9100    134.277  6.07903e+02 -2.02501e+03 -1.41711e+03
  9110    134.526  6.09029e+02 -2.02605e+03 -1.41702e+03
  9120    134.809  6.10310e+02 -2.02700e+03 -1.41669e+03
  9130    135.136  6.11789e+02 -2.02808e+03 -1.41629e+03
  9140    135.510  6.13485e+02 -2.02928e+03 -1.41579e+03
  9150    135.931  6.15388e+02 -2.03049e+03 -1.41510e+03
  9160    136.386  6.17450e+02 -2.03173e+03 -1.41428e+03
  9170    136.857  6.19582e+02 -2.03301e+03 -1.41342e+03
  9180    137.317  6.21666e+02 -2.03391e+03 -1.41224e+03
  9190    137.734  6.23552e+02 -2.03457e+03 -1.41102e+03
  9200    138.071  6.25078e+02 -2.03479e+03 -1.40971e+03
  9210    138.294  6.26089e+02 -2.03442e+03 -1.40833e+03
  9220    138.378  6.26470e+02 -2.03313e+03 -1.40666e+03
  9230    138.313  6.26176e+02 -2.03101e+03 -1.40483e+03
  9240    138.106  6.25238e+02 -2.02816e+03 -1.40292e+03
  9250    137.786  6.23788e+02 -2.02468e+03 -1.40089e+03
  9260    137.402  6.22048e+02 -2.02082e+03 -1.39878e+03
  9270    137.016  6.20300e+02 -2.01689e+03 -1.39659e+03
  9280    136.695  6.18850e+02 -2.01297e+03 -1.39412e+03
  9290    136.502  6.17977e+02 -2.00955e+03 -1.39158e+03
  9300    136.485  6.17897e+02 -2.00689e+03 -1.38900e+03
  9310    136.671  6.18739e+02 -2.00491e+03 -1.38617e+03
  9320    137.071  6.20551e+02 -2.00375e+03 -1.38320e+03
  9330    137.683  6.23322e+02 -2.00349e+03 -1.38016e+03
  9340    138.496  6.27002e+02 -2.00388e+03 -1.37688e+03
  9350    139.494  6.31521e+02 -2.00516e+03 -1.37364e+03
  9360    140.657  6.36785e+02 -2.00696e+03 -1.37017e+03
  9370    141.957  6.42669e+02 -2.00915e+03 -1.36648e+03
  9380    143.352  6.48985e+02 -2.01172e+03 -1.36274e+03
  9390    144.792  6.55504e+02 -2.01435e+03 -1.35885e+03
  9400    146.222  6.61979e+02 -2.01696e+03 -1.35498e+03
  9410    147.592  6.68181e+02 -2.01905e+03 -1.35087e+03
  9420    148.860  6.73924e+02 -2.02050e+03 -1.34657e+03
  9430    150.006  6.79111e+02 -2.02134e+03 -1.34223e+03
  9440    151.025  6.83726e+02 -2.02171e+03 -1.33799e+03
  9450    151.929  6.87815e+02 -2.02181e+03 -1.33400e+03
  9460    152.734  6.91460e+02 -2.02112e+03 -1.32966e+03
  9470    153.457  6.94732e+02 -2.02036e+03 -1.32563e+03
  9480    154.109  6.97686e+02 -2.01923e+03 -1.32154e+03
  9490    154.701  7.00365e+02 -2.01753e+03 -1.31716e+03
  9500    155.247  7.02837e+02 -2.01598e+03 -1.31314e+03
  9510    155.766  7.05188e+02 -2.01417e+03 -1.30898e+03
  9520    156.276  7.07496e+02 -2.01240e+03 -1.30490e+03
  9530    156.786  7.09804e+02 -2.01072e+03 -1.30091e+03
  9540    157.294  7.12106e+02 -2.00896e+03 -1.29686e+03
  9550    157.789  7.14348e+02 -2.00736e+03 -1.29301e+03
  9560    158.256  7.16461e+02 -2.00566e+03 -1.28920e+03
  9570    158.681  7.18384e+02 -2.00381e+03 -1.28542e+03
  9580    159.058  7.20092e+02 -2.00172e+03 -1.28163e+03
  9590    159.388  7.21586e+02 -1.99987e+03 -1.27828e+03
  9600    159.681  7.22913e+02 -1.99791e+03 -1.27500e+03
  9610    159.959  7.24169e+02 -1.99608e+03 -1.27191e+03
  9620    160.256  7.25514e+02 -1.99414e+03 -1.26862e+03
  9630    160.621  7.27166e+02 -1.99270e+03 -1.26554e+03
  9640    161.110  7.29381e+02 -1.99205e+03 -1.26267e+03
  9650    161.776  7.32398e+02 -1.99216e+03 -1.25977e+03
  9660    162.648  7.36344e+02 -1.99350e+03 -1.25715e+03
  9670    163.710  7.41154e+02 -1.99571e+03 -1.25456e+03
  9680    164.897  7.46525e+02 -1.99868e+03 -1.25215e+03
  9690    166.101  7.51978e+02 -2.00185e+03 -1.24987e+03
  9700    167.209  7.56992e+02 -2.00499e+03 -1.24800e+03
  9710    168.126  7.61143e+02 -2.00737e+03 -1.24623e+03
  9720    168.796  7.64178e+02 -2.00868e+03 -1.24450e+03
  9730    169.205  7.66027e+02 -2.00923e+03 -1.24320e+03
  9740    169.366  7.66760e+02 -2.00870e+03 -1.24194e+03
  9750    169.316  7.66532e+02 -2.00774e+03 -1.24121e+03
  9760    169.097  7.65541e+02 -2.00592e+03 -1.24038e+03
  9770    168.755  7.63991e+02 -2.00409e+03 -1.24010e+03
  9780    168.330  7.62067e+02 -2.00182e+03 -1.23975e+03
  9790    167.860  7.59941e+02 -1.99963e+03 -1.23969e+03
  9800    167.382  7.57774e+02 -1.99774e+03 -1.23996e+03
  9810    166.931  7.55732e+02 -1.99654e+03 -1.24081e+03
  9820    166.543  7.53978e+02 -1.99554e+03 -1.24156e+03
  9830    166.249  7.52647e+02 -1.99501e+03 -1.24236e+03
  9840    166.068  7.51827e+02 -1.99543e+03 -1.24360e+03
  9850    166.004  7.51535e+02 -1.99632e+03 -1.24478e+03
  9860    166.043  7.51714e+02 -1.99784e+03 -1.24612e+03
  9870    166.158  7.52233e+02 -1.99989e+03 -1.24766e+03
  9880    166.300  7.52879e+02 -2.00272e+03 -1.24984e+03
  9890    166.416  7.53404e+02 -2.00517e+03 -1.25177e+03
  9900    166.448  7.53549e+02 -2.00737e+03 -1.25382e+03
  9910    166.351  7.53108e+02 -2.00934e+03 -1.25623e+03
  9920    166.095  7.51951e+02 -2.01096e+03 -1.25901e+03
  9930    165.671  7.50032e+02 -2.01191e+03 -1.26188e+03
  9940    165.085  7.47379e+02 -2.01239e+03 -1.26501e+03
  9950    164.356  7.44075e+02 -2.01253e+03 -1.26846e+03
  9960    163.511  7.40252e+02 -2.01186e+03 -1.27160e+03
  9970    162.590  7.36079e+02 -2.01140e+03 -1.27532e+03
  9980    161.632  7.31744e+02 -2.01087e+03 -1.27912e+03
  9990    160.677  7.27420e+02 -2.01017e+03 -1.28275e+03
