Step    T(K)    KE(kJ)    PE(kJ)    TotE(kJ)    P(MPa)
     0      0.103  4.67178e-01 -1.63103e+03 -1.63057e+03  1.97223e+02
    10      0.444  2.01190e+00 -1.63257e+03 -1.63056e+03  1.96922e+02
    20      1.332  6.03095e+00 -1.63653e+03 -1.63049e+03  1.96140e+02
    30      2.726  1.23430e+01 -1.64260e+03 -1.63025e+03  1.94919e+02
    40      4.575  2.07109e+01 -1.65037e+03 -1.62966e+03  1.93317e+02
    50      6.827  3.09072e+01 -1.65940e+03 -1.62849e+03  1.91402e+02
    60      9.449  4.27759e+01 -1.66925e+03 -1.62647e+03  1.89240e+02
    70     12.430  5.62754e+01 -1.67947e+03 -1.62320e+03  1.86898e+02
    80     15.793  7.14975e+01 -1.68986e+03 -1.61836e+03  1.84423e+02
    90     19.587  8.86739e+01 -1.69959e+03 -1.61092e+03  1.81897e+02
   100     23.886  1.08137e+02 -1.70928e+03 -1.60114e+03  1.79313e+02
   110     28.794  1.30356e+02 -1.71387e+03 -1.58351e+03  1.77007e+02
   120     34.431  1.55876e+02 -1.72221e+03 -1.56634e+03  1.74468e+02
   130     40.906  1.85192e+02 -1.73238e+03 -1.54719e+03  1.71840e+02
   140     48.354  2.18909e+02 -1.74159e+03 -1.52268e+03  1.69328e+02
   150     56.918  2.57682e+02 -1.74895e+03 -1.49127e+03  1.67023e+02
   160     66.744  3.02163e+02 -1.75692e+03 -1.45476e+03  1.64816e+02
   170     77.960  3.52942e+02 -1.76356e+03 -1.41062e+03  1.62869e+02
   180     90.689  4.10571e+02 -1.76751e+03 -1.35694e+03  1.61311e+02
   190    105.009  4.75399e+02 -1.77112e+03 -1.29572e+03  1.60040e+02
   200    120.933  5.47490e+02 -1.77227e+03 -1.22478e+03  1.59219e+02
   210    138.390  6.26524e+02 -1.77076e+03 -1.14423e+03  1.58884e+02
   220    157.189  7.11628e+02 -1.76778e+03 -1.05615e+03  1.58963e+02
   230    176.978  8.01220e+02 -1.76292e+03 -9.61704e+02  1.59458e+02
   240    197.216  8.92843e+02 -1.75616e+03 -8.63317e+02  1.60313e+02
   250    217.141  9.83045e+02 -1.74656e+03 -7.63510e+02  1.61497e+02
   260    235.773  1.06740e+03 -1.73347e+03 -6.66076e+02  1.62927e+02
   270    251.947  1.14062e+03 -1.71801e+03 -5.77396e+02  1.64396e+02
   280    264.432  1.19714e+03 -1.69862e+03 -5.01472e+02  1.65848e+02
   290    272.216  1.23238e+03 -1.67598e+03 -4.43603e+02  1.67069e+02
   300    274.986  1.24492e+03 -1.65083e+03 -4.05909e+02  1.67820e+02
   310    273.246  1.23705e+03 -1.62499e+03 -3.87945e+02  1.67790e+02
   320    267.619  1.21157e+03 -1.60427e+03 -3.92696e+02  1.66525e+02
   330    258.458  1.17010e+03 -1.58886e+03 -4.18761e+02  1.64054e+02
   340    246.439  1.11569e+03 -1.57758e+03 -4.61894e+02  1.60546e+02
   350    232.623  1.05314e+03 -1.57243e+03 -5.19291e+02  1.55982e+02
   360    217.830  9.86165e+02 -1.57348e+03 -5.87320e+02  1.50519e+02
   370    202.386  9.16247e+02 -1.57780e+03 -6.61552e+02  1.44572e+02
   380    186.439  8.44053e+02 -1.58325e+03 -7.39201e+02  1.38516e+02
   390    170.274  7.70867e+02 -1.58857e+03 -8.17701e+02  1.32628e+02
   400    154.334  6.98706e+02 -1.59307e+03 -8.94368e+02  1.27076e+02
   410    139.102  6.29747e+02 -1.59657e+03 -9.66819e+02  1.21938e+02
   420    124.975  5.65792e+02 -1.60009e+03 -1.03430e+03  1.17164e+02
   430    112.216  5.08025e+02 -1.60433e+03 -1.09630e+03  1.12699e+02
   440    100.941  4.56984e+02 -1.60994e+03 -1.15296e+03  1.08477e+02
   450     91.143  4.12626e+02 -1.61659e+03 -1.20396e+03  1.04485e+02
   460     82.720  3.74492e+02 -1.62426e+03 -1.24977e+03  1.00694e+02
   470     75.532  3.41949e+02 -1.63270e+03 -1.29075e+03  9.70893e+01
   480     69.448  3.14406e+02 -1.64224e+03 -1.32783e+03  9.36198e+01
   490     64.374  2.91434e+02 -1.65234e+03 -1.36091e+03  9.02808e+01
   500     60.246  2.72747e+02 -1.66366e+03 -1.39091e+03  8.69943e+01
   510     57.007  2.58085e+02 -1.67592e+03 -1.41784e+03  8.37396e+01
   520     54.581  2.47103e+02 -1.68972e+03 -1.44262e+03  8.04513e+01
   530     52.873  2.39370e+02 -1.70467e+03 -1.46530e+03  7.71329e+01
   540     51.782  2.34428e+02 -1.72076e+03 -1.48633e+03  7.37746e+01
   550     51.212  2.31850e+02 -1.73781e+03 -1.50596e+03  7.03803e+01
   560     51.089  2.31292e+02 -1.75558e+03 -1.52429e+03  6.69620e+01
   570     51.357  2.32503e+02 -1.77412e+03 -1.54161e+03  6.35140e+01
   580     51.983  2.35339e+02 -1.79337e+03 -1.55803e+03  6.00351e+01
   590     52.952  2.39724e+02 -1.81327e+03 -1.57355e+03  5.65244e+01
   600     54.254  2.45621e+02 -1.83361e+03 -1.58799e+03  5.29910e+01
   610     55.881  2.52988e+02 -1.85477e+03 -1.60178e+03  4.94085e+01
   620     57.818  2.61753e+02 -1.87659e+03 -1.61484e+03  4.57867e+01
   630     60.039  2.71808e+02 -1.89895e+03 -1.62714e+03  4.21369e+01
   640     62.507  2.82984e+02 -1.92199e+03 -1.63901e+03  3.84580e+01
   650     65.168  2.95029e+02 -1.94536e+03 -1.65033e+03  3.47841e+01
   660     67.940  3.07580e+02 -1.96843e+03 -1.66085e+03  3.11719e+01
   670     70.726  3.20192e+02 -1.99109e+03 -1.67090e+03  2.76505e+01
   680     73.428  3.32424e+02 -2.01285e+03 -1.68043e+03  2.42720e+01
   690     75.972  3.43940e+02 -2.03301e+03 -1.68907e+03  2.10951e+01
   700     78.327  3.54603e+02 -2.05183e+03 -1.69723e+03  1.81113e+01
   710     80.504  3.64459e+02 -2.06939e+03 -1.70493e+03  1.53166e+01
   720     82.532  3.73643e+02 -2.08562e+03 -1.71198e+03  1.27104e+01
   730     84.421  3.82195e+02 -2.10062e+03 -1.71842e+03  1.02836e+01
   740     86.136  3.89956e+02 -2.11475e+03 -1.72479e+03  8.01877e+00
   750     87.612  3.96641e+02 -2.12702e+03 -1.73038e+03  5.98458e+00
   760     88.798  4.02009e+02 -2.13739e+03 -1.73538e+03  4.19088e+00
   770     89.679  4.05996e+02 -2.14631e+03 -1.74031e+03  2.60798e+00
   780     90.288  4.08753e+02 -2.15354e+03 -1.74479e+03  1.23866e+00
   790     90.700  4.10621e+02 -2.15940e+03 -1.74878e+03  4.69921e-02
   800     91.016  4.12048e+02 -2.16452e+03 -1.75247e+03 -1.03026e+00
   810     91.327  4.13459e+02 -2.16890e+03 -1.75544e+03 -2.01510e+00
   820     91.704  4.15166e+02 -2.17359e+03 -1.75842e+03 -2.98771e+00
   830     92.186  4.17345e+02 -2.17840e+03 -1.76105e+03 -3.94590e+00
   840     92.791  4.20084e+02 -2.18377e+03 -1.76369e+03 -4.92223e+00
   850     93.531  4.23435e+02 -2.18905e+03 -1.76561e+03 -5.87692e+00
   860     94.393  4.27340e+02 -2.19482e+03 -1.76748e+03 -6.84167e+00
   870     95.308  4.31481e+02 -2.20036e+03 -1.76888e+03 -7.75769e+00
   880     96.143  4.35259e+02 -2.20554e+03 -1.77028e+03 -8.59317e+00
   890     96.758  4.38045e+02 -2.20941e+03 -1.77137e+03 -9.26627e+00
   900     97.096  4.39574e+02 -2.21228e+03 -1.77271e+03 -9.78847e+00
   910     97.204  4.40064e+02 -2.21401e+03 -1.77394e+03 -1.01611e+01
   920     97.177  4.39941e+02 -2.21487e+03 -1.77493e+03 -1.04207e+01
   930     97.071  4.39461e+02 -2.21533e+03 -1.77587e+03 -1.06097e+01
   940     96.892  4.38652e+02 -2.21559e+03 -1.77693e+03 -1.07462e+01
   950     96.633  4.37478e+02 -2.21479e+03 -1.77731e+03 -1.07803e+01
   960     96.309  4.36012e+02 -2.21390e+03 -1.77788e+03 -1.07732e+01
   970     95.967  4.34463e+02 -2.21255e+03 -1.77809e+03 -1.07092e+01
   980     95.658  4.33066e+02 -2.21106e+03 -1.77799e+03 -1.06092e+01
   990     95.400  4.31896e+02 -2.20964e+03 -1.77774e+03 -1.04811e+01
  1000     95.149  4.30760e+02 -2.20779e+03 -1.77703e+03 -1.02767e+01
  1010     94.817  4.29257e+02 -2.20526e+03 -1.77601e+03 -9.95606e+00
  1020     94.318  4.26998e+02 -2.20204e+03 -1.77504e+03 -9.49639e+00
  1030     93.618  4.23829e+02 -2.19788e+03 -1.77406e+03 -8.87245e+00
  1040     92.744  4.19874e+02 -2.19258e+03 -1.77270e+03 -8.07402e+00
  1050     91.764  4.15436e+02 -2.18648e+03 -1.77104e+03 -7.13817e+00
  1060     90.767  4.10921e+02 -2.18009e+03 -1.76917e+03 -6.11853e+00
  1070     89.860  4.06818e+02 -2.17345e+03 -1.76663e+03 -5.04642e+00
  1080     89.181  4.03744e+02 -2.16763e+03 -1.76389e+03 -4.02114e+00
  1090     88.850  4.02245e+02 -2.16293e+03 -1.76068e+03 -3.09291e+00
  1100     88.923  4.02575e+02 -2.15968e+03 -1.75711e+03 -2.30575e+00
  1110     89.415  4.04802e+02 -2.15779e+03 -1.75299e+03 -1.66763e+00
  1120     90.346  4.09015e+02 -2.15723e+03 -1.74821e+03 -1.18869e+00
  1130     91.732  4.15291e+02 -2.15826e+03 -1.74297e+03 -8.94899e-01
  1140     93.551  4.23525e+02 -2.16094e+03 -1.73742e+03 -7.86003e-01
  1150     95.713  4.33313e+02 -2.16476e+03 -1.73145e+03 -8.15731e-01
  1160     98.083  4.44046e+02 -2.16937e+03 -1.72532e+03 -9.36172e-01
  1170    100.511  4.55034e+02 -2.17386e+03 -1.71882e+03 -1.05881e+00
  1180    102.841  4.65586e+02 -2.17799e+03 -1.71241e+03 -1.13701e+00
  1190    104.922  4.75006e+02 -2.18092e+03 -1.70592e+03 -1.08489e+00
  1200    106.593  4.82571e+02 -2.18223e+03 -1.69966e+03 -8.46117e-01
  1210    107.715  4.87648e+02 -2.18086e+03 -1.69321e+03 -3.34283e-01
  1220    108.215  4.89912e+02 -2.17755e+03 -1.68764e+03  4.09861e-01
  1230    108.121  4.89489e+02 -2.17165e+03 -1.68216e+03  1.41064e+00
  1240    107.587  4.87068e+02 -2.16425e+03 -1.67718e+03  2.56031e+00
  1250    106.876  4.83851e+02 -2.15633e+03 -1.67248e+03  3.74171e+00
  1260    106.283  4.81166e+02 -2.14918e+03 -1.66802e+03  4.81596e+00
  1270    105.982  4.79804e+02 -2.14377e+03 -1.66397e+03  5.68724e+00
  1280    105.955  4.79683e+02 -2.14014e+03 -1.66045e+03  6.35239e+00
  1290    106.058  4.80146e+02 -2.13714e+03 -1.65700e+03  6.90174e+00
  1300    106.134  4.80492e+02 -2.13447e+03 -1.65398e+03  7.38004e+00
  1310    106.088  4.80284e+02 -2.13142e+03 -1.65114e+03  7.84718e+00
  1320    105.899  4.79427e+02 -2.12819e+03 -1.64876e+03  8.29399e+00
  1330    105.614  4.78137e+02 -2.12455e+03 -1.64641e+03  8.72674e+00
  1340    105.334  4.76869e+02 -2.12124e+03 -1.64437e+03  9.08283e+00
  1350    105.188  4.76208e+02 -2.11851e+03 -1.64230e+03  9.32711e+00
  1360    105.279  4.76622e+02 -2.11732e+03 -1.64070e+03  9.38702e+00
  1370    105.630  4.78213e+02 -2.11766e+03 -1.63944e+03  9.26575e+00
  1380    106.165  4.80634e+02 -2.11896e+03 -1.63833e+03  9.01692e+00
  1390    106.744  4.83253e+02 -2.12113e+03 -1.63788e+03  8.67715e+00
  1400    107.229  4.85450e+02 -2.12300e+03 -1.63755e+03  8.34773e+00
  1410    107.542  4.86867e+02 -2.12427e+03 -1.63741e+03  8.06615e+00
  1420    107.678  4.87485e+02 -2.12525e+03 -1.63777e+03  7.82027e+00
  1430    107.674  4.87463e+02 -2.12592e+03 -1.63845e+03  7.60755e+00
  1440    107.548  4.86894e+02 -2.12638e+03 -1.63949e+03  7.41777e+00
  1450    107.285  4.85703e+02 -2.12651e+03 -1.64080e+03  7.26142e+00
  1460    106.849  4.83732e+02 -2.12635e+03 -1.64262e+03  7.13769e+00
  1470    106.233  4.80941e+02 -2.12580e+03 -1.64486e+03  7.05371e+00
  1480    105.486  4.77558e+02 -2.12465e+03 -1.64709e+03  7.01082e+00
  1490    104.722  4.74101e+02 -2.12377e+03 -1.64967e+03  6.93621e+00
  1500    104.064  4.71123e+02 -2.12363e+03 -1.65251e+03  6.78023e+00
  1510    103.552  4.68805e+02 -2.12440e+03 -1.65560e+03  6.52556e+00
  1520    103.117  4.66832e+02 -2.12531e+03 -1.65848e+03  6.22941e+00
  1530    102.657  4.64753e+02 -2.12639e+03 -1.66164e+03  5.90353e+00
  1540    102.128  4.62355e+02 -2.12752e+03 -1.66517e+03  5.56384e+00
  1550    101.537  4.59681e+02 -2.12828e+03 -1.66859e+03  5.23492e+00
  1560    100.908  4.56833e+02 -2.12872e+03 -1.67188e+03  4.90845e+00
  1570    100.248  4.53845e+02 -2.12935e+03 -1.67551e+03  4.55065e+00
  1580     99.579  4.50816e+02 -2.12997e+03 -1.67916e+03  4.17137e+00
  1590     98.969  4.48054e+02 -2.13080e+03 -1.68274e+03  3.74746e+00
  1600     98.526  4.46049e+02 -2.13202e+03 -1.68598e+03  3.25237e+00
  1610     98.329  4.45158e+02 -2.13441e+03 -1.68925e+03  2.63314e+00
  1620     98.382  4.45398e+02 -2.13799e+03 -1.69259e+03  1.89493e+00
  1630     98.629  4.46514e+02 -2.14205e+03 -1.69553e+03  1.10114e+00
  1640     98.969  4.48055e+02 -2.14678e+03 -1.69872e+03  2.71291e-01
  1650     99.248  4.49320e+02 -2.15132e+03 -1.70200e+03 -5.00120e-01
  1660     99.265  4.49394e+02 -2.15427e+03 -1.70487e+03 -1.08072e+00
  1670     98.825  4.47401e+02 -2.15541e+03 -1.70800e+03 -1.41434e+00
  1680     97.813  4.42822e+02 -2.15366e+03 -1.71084e+03 -1.41160e+00
  1690     96.249  4.35742e+02 -2.14893e+03 -1.71318e+03 -1.07344e+00
  1700     94.313  4.26975e+02 -2.14273e+03 -1.71576e+03 -5.34966e-01
  1710     92.343  4.18058e+02 -2.13581e+03 -1.71775e+03  8.47187e-02
  1720     90.772  4.10943e+02 -2.13029e+03 -1.71935e+03  5.66317e-01
  1730     89.934  4.07150e+02 -2.12769e+03 -1.72054e+03  7.46705e-01
  1740     89.882  4.06914e+02 -2.12809e+03 -1.72117e+03  6.02608e-01
  1750     90.391  4.09220e+02 -2.13090e+03 -1.72168e+03  2.04180e-01
  1760     91.143  4.12626e+02 -2.13475e+03 -1.72213e+03 -3.06966e-01
  1770     91.888  4.15995e+02 -2.13822e+03 -1.72223e+03 -7.90959e-01
  1780     92.500  4.18768e+02 -2.14067e+03 -1.72191e+03 -1.17663e+00
  1790     92.961  4.20854e+02 -2.14228e+03 -1.72142e+03 -1.46261e+00
  1800     93.313  4.22448e+02 -2.14268e+03 -1.72023e+03 -1.62841e+00
  1810     93.624  4.23858e+02 -2.14265e+03 -1.71879e+03 -1.72835e+00
  1820     93.963  4.25392e+02 -2.14206e+03 -1.71667e+03 -1.76411e+00
  1830     94.377  4.27267e+02 -2.14203e+03 -1.71476e+03 -1.80908e+00
  1840     94.863  4.29467e+02 -2.14197e+03 -1.71250e+03 -1.82610e+00
  1850     95.366  4.31746e+02 -2.14195e+03 -1.71020e+03 -1.81176e+00
  1860     95.832  4.33853e+02 -2.14138e+03 -1.70753e+03 -1.72461e+00
  1870     96.285  4.35902e+02 -2.14054e+03 -1.70463e+03 -1.58944e+00
  1880     96.837  4.38401e+02 -2.14034e+03 -1.70194e+03 -1.48525e+00
  1890     97.586  4.41796e+02 -2.14060e+03 -1.69881e+03 -1.41852e+00
  1900     98.489  4.45882e+02 -2.14149e+03 -1.69561e+03 -1.39692e+00
  1910     99.369  4.49867e+02 -2.14220e+03 -1.69234e+03 -1.34670e+00
  1920    100.068  4.53031e+02 -2.14163e+03 -1.68860e+03 -1.18228e+00
  1930    100.576  4.55330e+02 -2.14047e+03 -1.68514e+03 -9.53506e-01
  1940    101.026  4.57367e+02 -2.13933e+03 -1.68196e+03 -7.28703e-01
  1950    101.583  4.59890e+02 -2.13818e+03 -1.67829e+03 -5.40578e-01
  1960    102.324  4.63242e+02 -2.13843e+03 -1.67519e+03 -4.94003e-01
  1970    103.196  4.67192e+02 -2.13900e+03 -1.67181e+03 -5.17914e-01
  1980    104.084  4.71211e+02 -2.13951e+03 -1.66830e+03 -5.71521e-01
  1990    104.898  4.74895e+02 -2.13987e+03 -1.66497e+03 -6.32497e-01
  2000    105.623  4.78181e+02 -2.14023e+03 -1.66205e+03 -7.04512e-01
  2010    106.301  4.81250e+02 -2.14085e+03 -1.65960e+03 -8.02886e-01
  2020    106.960  4.84231e+02 -2.14164e+03 -1.65741e+03 -9.20902e-01
  2030    107.568  4.86985e+02 -2.14244e+03 -1.65546e+03 -1.03640e+00
  2040    108.045  4.89145e+02 -2.14274e+03 -1.65360e+03 -1.09639e+00
  2050    108.297  4.90285e+02 -2.14273e+03 -1.65245e+03 -1.08888e+00
  2060    108.240  4.90027e+02 -2.14162e+03 -1.65159e+03 -9.47775e-01
  2070    107.819  4.88121e+02 -2.13920e+03 -1.65108e+03 -6.49400e-01
  2080    107.023  4.84519e+02 -2.13533e+03 -1.65082e+03 -1.86436e-01
  2090    105.911  4.79481e+02 -2.13051e+03 -1.65103e+03  3.95474e-01
  2100    104.614  4.73611e+02 -2.12507e+03 -1.65146e+03  1.04351e+00
  2110    103.317  4.67741e+02 -2.11986e+03 -1.65212e+03  1.66394e+00
  2120    102.213  4.62742e+02 -2.11556e+03 -1.65281e+03  2.17216e+00
  2130    101.447  4.59274e+02 -2.11266e+03 -1.65338e+03  2.50591e+00
  2140    101.068  4.57556e+02 -2.11191e+03 -1.65435e+03  2.60608e+00
  2150    101.023  4.57355e+02 -2.11274e+03 -1.65539e+03  2.51350e+00
  2160    101.231  4.58297e+02 -2.11480e+03 -1.65650e+03  2.26711e+00
  2170    101.620  4.60058e+02 -2.11784e+03 -1.65778e+03  1.90088e+00
  2180    102.099  4.62225e+02 -2.12137e+03 -1.65915e+03  1.46875e+00
  2190    102.494  4.64015e+02 -2.12443e+03 -1.66042e+03  1.06922e+00
  2200    102.595  4.64470e+02 -2.12611e+03 -1.66164e+03  8.01520e-01
  2210    102.253  4.62921e+02 -2.12599e+03 -1.66307e+03  7.22304e-01
  2220    101.430  4.59198e+02 -2.12393e+03 -1.66474e+03  8.51338e-01
  2230    100.187  4.53569e+02 -2.11969e+03 -1.66612e+03  1.19193e+00
  2240     98.688  4.46784e+02 -2.11441e+03 -1.66763e+03  1.63940e+00
  2250     97.233  4.40197e+02 -2.10938e+03 -1.66919e+03  2.05706e+00
  2260     96.205  4.35543e+02 -2.10600e+03 -1.67046e+03  2.28754e+00
  2270     95.911  4.34213e+02 -2.10606e+03 -1.67184e+03  2.16545e+00
  2280     96.394  4.36396e+02 -2.10934e+03 -1.67295e+03  1.69449e+00
  2290     97.379  4.40855e+02 -2.11489e+03 -1.67404e+03  9.82737e-01
  2300     98.424  4.45590e+02 -2.12035e+03 -1.67476e+03  2.55943e-01
  2310     99.141  4.48832e+02 -2.12431e+03 -1.67547e+03 -3.24948e-01
  2320     99.354  4.49797e+02 -2.12580e+03 -1.67600e+03 -6.62270e-01
  2330     99.159  4.48917e+02 -2.12525e+03 -1.67634e+03 -7.90647e-01
  2340     98.859  4.47557e+02 -2.12447e+03 -1.67691e+03 -8.66265e-01
  2350     98.791  4.47249e+02 -2.12492e+03 -1.67767e+03 -1.03366e+00
  2360     99.128  4.48775e+02 -2.12686e+03 -1.67809e+03 -1.33694e+00
  2370     99.783  4.51742e+02 -2.13029e+03 -1.67855e+03 -1.76087e+00
  2380    100.495  4.54963e+02 -2.13400e+03 -1.67904e+03 -2.18638e+00
  2390    100.993  4.57217e+02 -2.13673e+03 -1.67951e+03 -2.48815e+00
  2400    101.124  4.57810e+02 -2.13796e+03 -1.68015e+03 -2.60599e+00
  2410    100.867  4.56646e+02 -2.13725e+03 -1.68061e+03 -2.50799e+00
  2420    100.282  4.54000e+02 -2.13525e+03 -1.68126e+03 -2.24567e+00
  2430     99.448  4.50225e+02 -2.13197e+03 -1.68175e+03 -1.83982e+00
  2440     98.437  4.45644e+02 -2.12809e+03 -1.68245e+03 -1.35586e+00
  2450     97.367  4.40800e+02 -2.12395e+03 -1.68315e+03 -8.49246e-01
  2460     96.512  4.36930e+02 -2.12031e+03 -1.68338e+03 -4.25235e-01
  2470     96.248  4.35736e+02 -2.11936e+03 -1.68362e+03 -2.85477e-01
  2480     96.743  4.37979e+02 -2.12180e+03 -1.68382e+03 -5.02708e-01
  2490     97.762  4.42591e+02 -2.12632e+03 -1.68373e+03 -9.57509e-01
  2500     98.891  4.47700e+02 -2.13125e+03 -1.68355e+03 -1.47490e+00
  2510     99.821  4.51912e+02 -2.13537e+03 -1.68346e+03 -1.92091e+00
  2520    100.429  4.54665e+02 -2.13788e+03 -1.68322e+03 -2.21810e+00
  2530    100.728  4.56019e+02 -2.13888e+03 -1.68286e+03 -2.37283e+00
  2540    100.811  4.56393e+02 -2.13891e+03 -1.68251e+03 -2.43465e+00
  2550    100.783  4.56268e+02 -2.13869e+03 -1.68242e+03 -2.47137e+00
  2560    100.724  4.55999e+02 -2.13852e+03 -1.68252e+03 -2.52268e+00
  2570    100.699  4.55888e+02 -2.13823e+03 -1.68234e+03 -2.59805e+00
  2580    100.815  4.56410e+02 -2.13867e+03 -1.68226e+03 -2.77154e+00
  2590    101.221  4.58250e+02 -2.14032e+03 -1.68207e+03 -3.09739e+00
  2600    102.005  4.61799e+02 -2.14389e+03 -1.68209e+03 -3.62546e+00
  2610    103.038  4.66476e+02 -2.14864e+03 -1.68216e+03 -4.27985e+00
  2620    104.017  4.70909e+02 -2.15336e+03 -1.68245e+03 -4.92598e+00
  2630    104.652  4.73785e+02 -2.15671e+03 -1.68293e+03 -5.42257e+00
  2640    104.804  4.74470e+02 -2.15805e+03 -1.68358e+03 -5.69733e+00
  2650    104.484  4.73025e+02 -2.15745e+03 -1.68443e+03 -5.75212e+00
  2660    103.801  4.69929e+02 -2.15565e+03 -1.68572e+03 -5.64806e+00
  2670    102.884  4.65779e+02 -2.15276e+03 -1.68698e+03 -5.41727e+00
  2680    101.848  4.61089e+02 -2.14903e+03 -1.68794e+03 -5.09897e+00
  2690    100.785  4.56277e+02 -2.14568e+03 -1.68940e+03 -4.78852e+00
  2700     99.779  4.51723e+02 -2.14228e+03 -1.69056e+03 -4.47566e+00
  2710     98.908  4.47779e+02 -2.13989e+03 -1.69212e+03 -4.23630e+00
  2720     98.214  4.44638e+02 -2.13815e+03 -1.69351e+03 -4.05142e+00
  2730     97.664  4.42146e+02 -2.13670e+03 -1.69455e+03 -3.89008e+00
  2740     97.145  4.39796e+02 -2.13523e+03 -1.69544e+03 -3.71273e+00
  2750     96.548  4.37095e+02 -2.13354e+03 -1.69645e+03 -3.48848e+00
  2760     95.841  4.33893e+02 -2.13113e+03 -1.69724e+03 -3.18424e+00
  2770     95.067  4.30391e+02 -2.12819e+03 -1.69780e+03 -2.82644e+00
  2780     94.346  4.27126e+02 -2.12515e+03 -1.69802e+03 -2.46944e+00
  2790     93.837  4.24821e+02 -2.12284e+03 -1.69802e+03 -2.20047e+00
  2800     93.667  4.24050e+02 -2.12220e+03 -1.69815e+03 -2.10477e+00
  2810     93.864  4.24942e+02 -2.12273e+03 -1.69779e+03 -2.15844e+00
  2820     94.364  4.27209e+02 -2.12447e+03 -1.69726e+03 -2.35021e+00
  2830     95.048  4.30303e+02 -2.12685e+03 -1.69654e+03 -2.61842e+00
  2840     95.750  4.33483e+02 -2.12871e+03 -1.69522e+03 -2.85690e+00
  2850     96.283  4.35895e+02 -2.12996e+03 -1.69407e+03 -3.02459e+00
  2860     96.511  4.36927e+02 -2.12974e+03 -1.69282e+03 -3.04518e+00
  2870     96.436  4.36586e+02 -2.12785e+03 -1.69127e+03 -2.91017e+00
  2880     96.211  4.35567e+02 -2.12485e+03 -1.68928e+03 -2.68620e+00
  2890     96.077  4.34960e+02 -2.12229e+03 -1.68733e+03 -2.51687e+00
  2900     96.258  4.35780e+02 -2.12105e+03 -1.68527e+03 -2.49937e+00
  2910     96.889  4.38637e+02 -2.12150e+03 -1.68287e+03 -2.68383e+00
  2920     97.987  4.43611e+02 -2.12380e+03 -1.68019e+03 -3.07904e+00
  2930     99.434  4.50161e+02 -2.12774e+03 -1.67758e+03 -3.64762e+00
  2940    101.002  4.57260e+02 -2.13200e+03 -1.67474e+03 -4.26015e+00
  2950    102.435  4.63748e+02 -2.13540e+03 -1.67165e+03 -4.79045e+00
  2960    103.529  4.68698e+02 -2.13797e+03 -1.66927e+03 -5.19939e+00
  2970    104.170  4.71599e+02 -2.13831e+03 -1.66671e+03 -5.37755e+00
  2980    104.347  4.72401e+02 -2.13691e+03 -1.66450e+03 -5.35359e+00
  2990    104.143  4.71478e+02 -2.13378e+03 -1.66230e+03 -5.14701e+00
  3000    103.707  4.69504e+02 -2.12994e+03 -1.66044e+03 -4.85282e+00
  3010    103.210  4.67253e+02 -2.12608e+03 -1.65883e+03 -4.54954e+00
  3020    102.791  4.65358e+02 -2.12279e+03 -1.65743e+03 -4.30234e+00
  3030    102.529  4.64170e+02 -2.12036e+03 -1.65619e+03 -4.14703e+00
  3040    102.454  4.63833e+02 -2.11850e+03 -1.65467e+03 -4.07417e+00
  3050    102.605  4.64516e+02 -2.11776e+03 -1.65325e+03 -4.12667e+00
  3060    103.067  4.66610e+02 -2.11847e+03 -1.65187e+03 -4.33599e+00
  3070    103.914  4.70443e+02 -2.12140e+03 -1.65096e+03 -4.75570e+00
  3080    105.090  4.75764e+02 -2.12589e+03 -1.65012e+03 -5.32784e+00
  3090    106.369  4.81556e+02 -2.13120e+03 -1.64964e+03 -5.96028e+00
  3100    107.450  4.86451e+02 -2.13580e+03 -1.64935e+03 -6.49926e+00
  3110    108.084  4.89319e+02 -2.13870e+03 -1.64938e+03 -6.83113e+00
  3120    108.143  4.89587e+02 -2.13944e+03 -1.64986e+03 -6.90007e+00
  3130    107.632  4.87272e+02 -2.13793e+03 -1.65066e+03 -6.69770e+00
  3140    106.665  4.82894e+02 -2.13476e+03 -1.65187e+03 -6.28236e+00
  3150    105.435  4.77326e+02 -2.13078e+03 -1.65345e+03 -5.74577e+00
  3160    104.154  4.71528e+02 -2.12668e+03 -1.65515e+03 -5.17462e+00
  3170    102.979  4.66211e+02 -2.12351e+03 -1.65730e+03 -4.66838e+00
  3180    101.968  4.61631e+02 -2.12102e+03 -1.65939e+03 -4.22911e+00
  3190    101.092  4.57666e+02 -2.11909e+03 -1.66142e+03 -3.85109e+00
  3200    100.279  4.53987e+02 -2.11745e+03 -1.66346e+03 -3.50886e+00
  3210     99.450  4.50233e+02 -2.11619e+03 -1.66596e+03 -3.19494e+00
  3220     98.541  4.46119e+02 -2.11418e+03 -1.66807e+03 -2.82978e+00
  3230     97.514  4.41467e+02 -2.11127e+03 -1.66980e+03 -2.39981e+00
  3240     96.358  4.36235e+02 -2.10786e+03 -1.67162e+03 -1.93274e+00
  3250     95.105  4.30560e+02 -2.10406e+03 -1.67350e+03 -1.44581e+00
  3260     93.861  4.24929e+02 -2.09981e+03 -1.67488e+03 -9.60172e-01
  3270     92.838  4.20299e+02 -2.09646e+03 -1.67616e+03 -6.00490e-01
  3280     92.302  4.17872e+02 -2.09502e+03 -1.67714e+03 -4.75197e-01
  3290     92.448  4.18533e+02 -2.09614e+03 -1.67761e+03 -6.55734e-01
  3300     93.306  4.22417e+02 -2.10017e+03 -1.67775e+03 -1.16205e+00
  3310     94.721  4.28825e+02 -2.10648e+03 -1.67766e+03 -1.92081e+00
  3320     96.429  4.36555e+02 -2.11414e+03 -1.67759e+03 -2.81712e+00
  3330     98.144  4.44319e+02 -2.12119e+03 -1.67687e+03 -3.66864e+00
  3340     99.642  4.51101e+02 -2.12762e+03 -1.67652e+03 -4.42500e+00
  3350    100.799  4.56339e+02 -2.13226e+03 -1.67592e+03 -4.98350e+00
  3360    101.583  4.59888e+02 -2.13495e+03 -1.67506e+03 -5.32337e+00
  3370    102.006  4.61804e+02 -2.13613e+03 -1.67433e+03 -5.47203e+00
  3380    102.087  4.62172e+02 -2.13623e+03 -1.67406e+03 -5.46026e+00
  3390    101.839  4.61048e+02 -2.13455e+03 -1.67350e+03 -5.25283e+00
  3400    101.302  4.58619e+02 -2.13169e+03 -1.67307e+03 -4.90047e+00
  3410    100.576  4.55332e+02 -2.12834e+03 -1.67301e+03 -4.47186e+00
  3420     99.808  4.51853e+02 -2.12458e+03 -1.67273e+03 -4.00349e+00
  3430     99.119  4.48734e+02 -2.12138e+03 -1.67265e+03 -3.58247e+00
  3440     98.560  4.46202e+02 -2.11858e+03 -1.67238e+03 -3.21266e+00
  3450     98.112  4.44176e+02 -2.11652e+03 -1.67234e+03 -2.91437e+00
  3460     97.746  4.42519e+02 -2.11464e+03 -1.67212e+03 -2.64728e+00
  3470     97.452  4.41189e+02 -2.11281e+03 -1.67162e+03 -2.39876e+00
  3480     97.248  4.40265e+02 -2.11117e+03 -1.67090e+03 -2.17749e+00
  3490     97.158  4.39857e+02 -2.10980e+03 -1.66994e+03 -1.98837e+00
  3500     97.174  4.39927e+02 -2.10886e+03 -1.66893e+03 -1.83755e+00
  3510     97.244  4.40244e+02 -2.10828e+03 -1.66803e+03 -1.71148e+00
  3520     97.311  4.40548e+02 -2.10739e+03 -1.66685e+03 -1.56075e+00
  3530     97.370  4.40817e+02 -2.10633e+03 -1.66552e+03 -1.39316e+00
  3540     97.492  4.41367e+02 -2.10564e+03 -1.66427e+03 -1.25319e+00
  3550     97.767  4.42614e+02 -2.10550e+03 -1.66288e+03 -1.16702e+00
  3560     98.227  4.44696e+02 -2.10607e+03 -1.66137e+03 -1.14847e+00
  3570     98.817  4.47366e+02 -2.10711e+03 -1.65975e+03 -1.17371e+00
  3580     99.436  4.50170e+02 -2.10782e+03 -1.65765e+03 -1.17450e+00
  3590     99.987  4.52664e+02 -2.10849e+03 -1.65582e+03 -1.14969e+00
  3600    100.400  4.54531e+02 -2.10849e+03 -1.65395e+03 -1.04868e+00
  3610    100.643  4.55633e+02 -2.10777e+03 -1.65214e+03 -8.61988e-01
  3620    100.731  4.56033e+02 -2.10659e+03 -1.65056e+03 -6.07858e-01
  3630    100.731  4.56032e+02 -2.10488e+03 -1.64885e+03 -2.93711e-01
  3640    100.750  4.56117e+02 -2.10311e+03 -1.64699e+03  3.14988e-02
  3650    100.903  4.56809e+02 -2.10231e+03 -1.64550e+03  2.82520e-01
  3660    101.275  4.58493e+02 -2.10224e+03 -1.64374e+03  4.60514e-01
  3670    101.881  4.61236e+02 -2.10341e+03 -1.64218e+03  5.31686e-01
  3680    102.628  4.64621e+02 -2.10542e+03 -1.64080e+03  5.37629e-01
  3690    103.327  4.67786e+02 -2.10726e+03 -1.63947e+03  5.71220e-01
  3700    103.781  4.69841e+02 -2.10791e+03 -1.63807e+03  7.26251e-01
  3710    103.886  4.70314e+02 -2.10774e+03 -1.63743e+03  9.94964e-01
  3720    103.667  4.69324e+02 -2.10597e+03 -1.63665e+03  1.41790e+00
  3730    103.263  4.67494e+02 -2.10329e+03 -1.63580e+03  1.92478e+00
  3740    102.866  4.65696e+02 -2.10088e+03 -1.63518e+03  2.40593e+00
  3750    102.659  4.64761e+02 -2.09929e+03 -1.63453e+03  2.79243e+00
  3760    102.727  4.65068e+02 -2.09929e+03 -1.63422e+03  3.02180e+00
  3770    102.998  4.66295e+02 -2.10034e+03 -1.63404e+03  3.13638e+00
  3780    103.287  4.67604e+02 -2.10126e+03 -1.63365e+03  3.23447e+00
  3790    103.414  4.68177e+02 -2.10199e+03 -1.63381e+03  3.34520e+00
  3800    103.303  4.67674e+02 -2.10186e+03 -1.63419e+03  3.51727e+00
  3810    103.006  4.66332e+02 -2.10074e+03 -1.63441e+03  3.74280e+00
  3820    102.661  4.64768e+02 -2.09982e+03 -1.63505e+03  3.91643e+00
  3830    102.437  4.63753e+02 -2.09962e+03 -1.63587e+03  3.96711e+00
  3840    102.492  4.64003e+02 -2.10065e+03 -1.63665e+03  3.82926e+00
  3850    102.929  4.65982e+02 -2.10383e+03 -1.63785e+03  3.42500e+00
  3860    103.757  4.69733e+02 -2.10837e+03 -1.63863e+03  2.80193e+00
  3870    104.881  4.74821e+02 -2.11468e+03 -1.63986e+03  1.95628e+00
  3880    106.122  4.80436e+02 -2.12190e+03 -1.64147e+03  9.83347e-01
  3890    107.254  4.85561e+02 -2.12864e+03 -1.64308e+03  2.19394e-02
  3900    108.039  4.89115e+02 -2.13425e+03 -1.64514e+03 -8.31869e-01
  3910    108.275  4.90187e+02 -2.13762e+03 -1.64743e+03 -1.46122e+00
  3920    107.869  4.88348e+02 -2.13873e+03 -1.65038e+03 -1.83885e+00
  3930    106.866  4.83806e+02 -2.13707e+03 -1.65327e+03 -1.93461e+00
  3940    105.429  4.77300e+02 -2.13402e+03 -1.65672e+03 -1.85912e+00
  3950    103.804  4.69943e+02 -2.13046e+03 -1.66051e+03 -1.71123e+00
  3960    102.272  4.63008e+02 -2.12727e+03 -1.66426e+03 -1.59770e+00
  3970    101.044  4.57450e+02 -2.12563e+03 -1.66818e+03 -1.63202e+00
  3980    100.168  4.53482e+02 -2.12577e+03 -1.67229e+03 -1.84388e+00
  3990     99.577  4.50809e+02 -2.12684e+03 -1.67603e+03 -2.17719e+00
  4000     99.218  4.49184e+02 -2.12942e+03 -1.68024e+03 -2.65937e+00
  4010     99.068  4.48505e+02 -2.13263e+03 -1.68413e+03 -3.23149e+00
  4020     99.101  4.48652e+02 -2.13645e+03 -1.68780e+03 -3.88203e+00
  4030     99.265  4.49393e+02 -2.14081e+03 -1.69142e+03 -4.59326e+00
  4040     99.495  4.50436e+02 -2.14557e+03 -1.69514e+03 -5.33588e+00
  4050     99.718  4.51444e+02 -2.15018e+03 -1.69874e+03 -6.05445e+00
  4060     99.839  4.51993e+02 -2.15420e+03 -1.70221e+03 -6.69704e+00
  4070     99.754  4.51610e+02 -2.15725e+03 -1.70564e+03 -7.21356e+00
  4080     99.381  4.49919e+02 -2.15937e+03 -1.70945e+03 -7.58322e+00
  4090     98.690  4.46791e+02 -2.15997e+03 -1.71318e+03 -7.75627e+00
  4100     97.696  4.42293e+02 -2.15932e+03 -1.71702e+03 -7.74737e+00
  4110     96.428  4.36552e+02 -2.15670e+03 -1.72014e+03 -7.51660e+00
  4120     94.940  4.29815e+02 -2.15281e+03 -1.72300e+03 -7.12034e+00
  4130     93.353  4.22630e+02 -2.14845e+03 -1.72582e+03 -6.63380e+00
  4140     91.849  4.15820e+02 -2.14416e+03 -1.72834e+03 -6.13052e+00
  4150     90.596  4.10147e+02 -2.14076e+03 -1.73061e+03 -5.70193e+00
  4160     89.685  4.06025e+02 -2.13827e+03 -1.73224e+03 -5.37621e+00
  4170     89.150  4.03601e+02 -2.13706e+03 -1.73345e+03 -5.19268e+00
  4180     89.004  4.02939e+02 -2.13724e+03 -1.73430e+03 -5.16746e+00
  4190     89.249  4.04049e+02 -2.13857e+03 -1.73453e+03 -5.28697e+00
  4200     89.852  4.06778e+02 -2.14101e+03 -1.73423e+03 -5.53945e+00
  4210     90.735  4.10776e+02 -2.14436e+03 -1.73358e+03 -5.89343e+00
  4220     91.794  4.15570e+02 -2.14815e+03 -1.73258e+03 -6.29228e+00
  4230     92.906  4.20605e+02 -2.15216e+03 -1.73156e+03 -6.69004e+00
  4240     93.947  4.25319e+02 -2.15536e+03 -1.73004e+03 -6.98933e+00
  4250     94.813  4.29238e+02 -2.15740e+03 -1.72816e+03 -7.14163e+00
  4260     95.442  4.32088e+02 -2.15797e+03 -1.72588e+03 -7.10939e+00
  4270     95.822  4.33810e+02 -2.15758e+03 -1.72377e+03 -6.91715e+00
  4280     95.962  4.34443e+02 -2.15587e+03 -1.72143e+03 -6.54373e+00
  4290     95.873  4.34039e+02 -2.15268e+03 -1.71864e+03 -5.98457e+00
  4300     95.578  4.32702e+02 -2.14848e+03 -1.71577e+03 -5.28018e+00
  4310     95.148  4.30755e+02 -2.14378e+03 -1.71303e+03 -4.48433e+00
  4320     94.711  4.28776e+02 -2.13844e+03 -1.70966e+03 -3.62001e+00
  4330     94.419  4.27456e+02 -2.13387e+03 -1.70642e+03 -2.81167e+00
  4340     94.403  4.27385e+02 -2.13008e+03 -1.70270e+03 -2.09149e+00
  4350     94.753  4.28967e+02 -2.12772e+03 -1.69875e+03 -1.52492e+00
  4360     95.537  4.32516e+02 -2.12712e+03 -1.69461e+03 -1.15187e+00
  4370     96.809  4.38276e+02 -2.12836e+03 -1.69009e+03 -9.85147e-01
  4380     98.549  4.46156e+02 -2.13165e+03 -1.68550e+03 -1.02931e+00
  4390    100.583  4.55362e+02 -2.13593e+03 -1.68056e+03 -1.18147e+00
  4400    102.578  4.64392e+02 -2.14011e+03 -1.67572e+03 -1.31047e+00
  4410    104.150  4.71510e+02 -2.14237e+03 -1.67086e+03 -1.23446e+00
  4420    105.030  4.75492e+02 -2.14155e+03 -1.66605e+03 -8.36634e-01
  4430    105.171  4.76134e+02 -2.13801e+03 -1.66188e+03 -1.39329e-01
  4440    104.766  4.74301e+02 -2.13200e+03 -1.65770e+03  7.97911e-01
  4450    104.142  4.71473e+02 -2.12511e+03 -1.65363e+03  1.80665e+00
  4460    103.638  4.69192e+02 -2.11901e+03 -1.64982e+03  2.70763e+00
  4470    103.541  4.68752e+02 -2.11507e+03 -1.64632e+03  3.35565e+00
  4480    103.999  4.70828e+02 -2.11379e+03 -1.64296e+03  3.68981e+00
  4490    104.924  4.75013e+02 -2.11414e+03 -1.63913e+03  3.78883e+00
  4500    106.022  4.79985e+02 -2.11612e+03 -1.63613e+03  3.70711e+00
  4510    106.995  4.84391e+02 -2.11774e+03 -1.63335e+03  3.62528e+00
  4520    107.700  4.87583e+02 -2.11844e+03 -1.63086e+03  3.61533e+00
  4530    108.162  4.89675e+02 -2.11812e+03 -1.62845e+03  3.69231e+00
  4540    108.492  4.91165e+02 -2.11787e+03 -1.62670e+03  3.78228e+00
  4550    108.768  4.92415e+02 -2.11742e+03 -1.62501e+03  3.89585e+00
  4560    108.962  4.93295e+02 -2.11753e+03 -1.62424e+03  3.99419e+00
  4570    108.980  4.93379e+02 -2.11716e+03 -1.62378e+03  4.15405e+00
  4580    108.776  4.92455e+02 -2.11590e+03 -1.62344e+03  4.40283e+00
  4590    108.402  4.90758e+02 -2.11457e+03 -1.62381e+03  4.67437e+00
  4600    107.960  4.88759e+02 -2.11304e+03 -1.62428e+03  4.95139e+00
  4610    107.542  4.86867e+02 -2.11224e+03 -1.62538e+03  5.15335e+00
  4620    107.200  4.85317e+02 -2.11217e+03 -1.62685e+03  5.26439e+00
  4630    106.961  4.84235e+02 -2.11300e+03 -1.62877e+03  5.26478e+00
  4640    106.828  4.83634e+02 -2.11470e+03 -1.63107e+03  5.15724e+00
  4650    106.746  4.83265e+02 -2.11688e+03 -1.63362e+03  4.97817e+00
  4660    106.580  4.82510e+02 -2.11893e+03 -1.63642e+03  4.79063e+00
  4670    106.141  4.80524e+02 -2.11996e+03 -1.63943e+03  4.68222e+00
  4680    105.279  4.76623e+02 -2.11950e+03 -1.64287e+03  4.70376e+00
  4690    103.977  4.70728e+02 -2.11707e+03 -1.64634e+03  4.88299e+00
  4700    102.396  4.63570e+02 -2.11363e+03 -1.65006e+03  5.12835e+00
  4710    100.840  4.56527e+02 -2.11043e+03 -1.65391e+03  5.30711e+00
  4720     99.628  4.51040e+02 -2.10863e+03 -1.65759e+03  5.29274e+00
  4730     98.945  4.47946e+02 -2.10936e+03 -1.66141e+03  4.98592e+00
  4740     98.785  4.47222e+02 -2.11236e+03 -1.66514e+03  4.40763e+00
  4750     98.997  4.48183e+02 -2.11704e+03 -1.66886e+03  3.63198e+00
  4760     99.372  4.49881e+02 -2.12223e+03 -1.67235e+03  2.78050e+00
  4770     99.699  4.51362e+02 -2.12731e+03 -1.67595e+03  1.94513e+00
  4780     99.789  4.51769e+02 -2.13095e+03 -1.67918e+03  1.25704e+00
  4790     99.479  4.50362e+02 -2.13323e+03 -1.68287e+03  7.50232e-01
  4800     98.679  4.46744e+02 -2.13301e+03 -1.68627e+03  5.17255e-01
  4810     97.436  4.41113e+02 -2.13086e+03 -1.68975e+03  5.17747e-01
  4820     95.938  4.34334e+02 -2.12728e+03 -1.69294e+03  6.86627e-01
  4830     94.457  4.27630e+02 -2.12334e+03 -1.69571e+03  9.08090e-01
  4840     93.213  4.21997e+02 -2.12037e+03 -1.69837e+03  1.05643e+00
  4850     92.300  4.17862e+02 -2.11866e+03 -1.70080e+03  1.09242e+00
  4860     91.685  4.15077e+02 -2.11792e+03 -1.70285e+03  1.03602e+00
  4870     91.274  4.13219e+02 -2.11799e+03 -1.70477e+03  9.12241e-01
  4880     90.988  4.11922e+02 -2.11817e+03 -1.70625e+03  7.79350e-01
  4890     90.795  4.11051e+02 -2.11796e+03 -1.70691e+03  6.76167e-01
  4900     90.709  4.10658e+02 -2.11802e+03 -1.70736e+03  5.62091e-01
  4910     90.752  4.10855e+02 -2.11833e+03 -1.70747e+03  4.35645e-01
  4920     90.955  4.11775e+02 -2.11895e+03 -1.70718e+03  2.86751e-01
  4930     91.348  4.13552e+02 -2.12020e+03 -1.70665e+03  8.99957e-02
  4940     91.937  4.16218e+02 -2.12195e+03 -1.70573e+03 -1.50887e-01
  4950     92.684  4.19602e+02 -2.12409e+03 -1.70449e+03 -4.24913e-01
  4960     93.522  4.23394e+02 -2.12626e+03 -1.70286e+03 -7.00640e-01
  4970     94.384  4.27297e+02 -2.12824e+03 -1.70094e+03 -9.56638e-01
  4980     95.224  4.31100e+02 -2.12984e+03 -1.69874e+03 -1.17318e+00
  4990     96.000  4.34614e+02 -2.13108e+03 -1.69647e+03 -1.34519e+00
  5000     96.677  4.37680e+02 -2.13136e+03 -1.69368e+03 -1.42947e+00
  5010     97.237  4.40215e+02 -2.13103e+03 -1.69082e+03 -1.44643e+00
  5020     97.689  4.42260e+02 -2.13036e+03 -1.68810e+03 -1.41427e+00
  5030     98.061  4.43944e+02 -2.12933e+03 -1.68538e+03 -1.34002e+00
  5040     98.394  4.45450e+02 -2.12761e+03 -1.68216e+03 -1.21442e+00
  5050     98.740  4.47018e+02 -2.12606e+03 -1.67904e+03 -1.10331e+00
  5060     99.194  4.49072e+02 -2.12455e+03 -1.67548e+03 -1.01988e+00
  5070     99.880  4.52181e+02 -2.12453e+03 -1.67234e+03 -1.07384e+00
  5080    100.884  4.56724e+02 -2.12551e+03 -1.66879e+03 -1.24761e+00
  5090    102.135  4.62388e+02 -2.12787e+03 -1.66548e+03 -1.54509e+00
  5100    103.392  4.68081e+02 -2.13044e+03 -1.66236e+03 -1.85168e+00
  5110    104.376  4.72536e+02 -2.13173e+03 -1.65919e+03 -2.02564e+00
  5120    104.939  4.75081e+02 -2.13141e+03 -1.65632e+03 -2.01917e+00
  5130    105.118  4.75893e+02 -2.12919e+03 -1.65329e+03 -1.82076e+00
  5140    105.082  4.75732e+02 -2.12637e+03 -1.65064e+03 -1.53953e+00
  5150    105.026  4.75477e+02 -2.12360e+03 -1.64812e+03 -1.24966e+00
  5160    105.099  4.75808e+02 -2.12181e+03 -1.64600e+03 -1.03439e+00
  5170    105.364  4.77008e+02 -2.12105e+03 -1.64404e+03 -9.06154e-01
  5180    105.761  4.78804e+02 -2.12115e+03 -1.64234e+03 -8.42151e-01
  5190    106.099  4.80333e+02 -2.12151e+03 -1.64118e+03 -7.72546e-01
  5200    106.170  4.80657e+02 -2.12089e+03 -1.64023e+03 -5.88460e-01
  5210    105.907  4.79464e+02 -2.11890e+03 -1.63943e+03 -2.58833e-01
  5220    105.414  4.77234e+02 -2.11615e+03 -1.63892e+03  1.55528e-01
  5230    104.899  4.74902e+02 -2.11344e+03 -1.63854e+03  5.63863e-01
  5240    104.597  4.73532e+02 -2.11200e+03 -1.63847e+03  8.44243e-01
  5250    104.657  4.73806e+02 -2.11232e+03 -1.63852e+03  9.37824e-01
  5260    104.974  4.75240e+02 -2.11432e+03 -1.63908e+03  8.64035e-01
  5270    105.216  4.76337e+02 -2.11590e+03 -1.63956e+03  8.04601e-01
  5280    105.123  4.75915e+02 -2.11642e+03 -1.64050e+03  8.43055e-01
  5290    104.682  4.73920e+02 -2.11554e+03 -1.64162e+03  1.00857e+00
  5300    104.041  4.71018e+02 -2.11392e+03 -1.64291e+03  1.24260e+00
  5310    103.324  4.67772e+02 -2.11224e+03 -1.64447e+03  1.48833e+00
  5320    102.526  4.64156e+02 -2.11013e+03 -1.64597e+03  1.77029e+00
  5330    101.549  4.59735e+02 -2.10727e+03 -1.64753e+03  2.12044e+00
  5340    100.334  4.54233e+02 -2.10371e+03 -1.64948e+03  2.53955e+00
  5350     98.938  4.47915e+02 -2.09939e+03 -1.65148e+03  3.01492e+00
  5360     97.545  4.41606e+02 -2.09452e+03 -1.65292e+03  3.49454e+00
  5370     96.395  4.36402e+02 -2.09080e+03 -1.65440e+03  3.82471e+00
  5380     95.704  4.33273e+02 -2.08903e+03 -1.65575e+03  3.91467e+00
  5390     95.575  4.32689e+02 -2.08958e+03 -1.65689e+03  3.72177e+00
  5400     95.965  4.34453e+02 -2.09221e+03 -1.65776e+03  3.27160e+00
  5410     96.715  4.37851e+02 -2.09626e+03 -1.65841e+03  2.63775e+00
  5420     97.606  4.41886e+02 -2.10119e+03 -1.65931e+03  1.90029e+00
  5430     98.413  4.45539e+02 -2.10536e+03 -1.65982e+03  1.20665e+00
  5440     99.002  4.48205e+02 -2.10876e+03 -1.66055e+03  5.86305e-01
  5450     99.422  4.50104e+02 -2.11099e+03 -1.66088e+03  6.21513e-02
  5460     99.887  4.52209e+02 -2.11333e+03 -1.66112e+03 -4.75008e-01
  5470    100.589  4.55388e+02 -2.11697e+03 -1.66158e+03 -1.12377e+00
  5480    101.532  4.59659e+02 -2.12162e+03 -1.66196e+03 -1.86388e+00
  5490    102.558  4.64305e+02 -2.12690e+03 -1.66260e+03 -2.63905e+00
  5500    103.444  4.68316e+02 -2.13157e+03 -1.66325e+03 -3.32886e+00
  5510    103.975  4.70716e+02 -2.13486e+03 -1.66415e+03 -3.84552e+00
  5520    104.022  4.70931e+02 -2.13572e+03 -1.66478e+03 -4.09995e+00
  5530    103.633  4.69168e+02 -2.13507e+03 -1.66590e+03 -4.15737e+00
  5540    103.018  4.66385e+02 -2.13369e+03 -1.66730e+03 -4.09968e+00
  5550    102.421  4.63685e+02 -2.13241e+03 -1.66873e+03 -4.01965e+00
  5560    101.933  4.61474e+02 -2.13165e+03 -1.67017e+03 -3.95776e+00
  5570    101.425  4.59175e+02 -2.13077e+03 -1.67160e+03 -3.85737e+00
  5580    100.681  4.55804e+02 -2.12888e+03 -1.67307e+03 -3.63106e+00
  5590     99.585  4.50842e+02 -2.12570e+03 -1.67486e+03 -3.24980e+00
  5600     98.210  4.44617e+02 -2.12100e+03 -1.67638e+03 -2.71903e+00
  5610     96.784  4.38163e+02 -2.11597e+03 -1.67781e+03 -2.16338e+00
  5620     95.605  4.32826e+02 -2.11191e+03 -1.67908e+03 -1.72393e+00
  5630     94.914  4.29697e+02 -2.10996e+03 -1.68026e+03 -1.52567e+00
  5640     94.817  4.29256e+02 -2.11088e+03 -1.68163e+03 -1.64100e+00
  5650     95.315  4.31514e+02 -2.11390e+03 -1.68238e+03 -2.02392e+00
  5660     96.333  4.36121e+02 -2.11892e+03 -1.68280e+03 -2.64808e+00
  5670     97.685  4.42244e+02 -2.12581e+03 -1.68356e+03 -3.46026e+00
  5680     99.108  4.48686e+02 -2.13259e+03 -1.68390e+03 -4.27910e+00
  5690    100.336  4.54243e+02 -2.13860e+03 -1.68436e+03 -5.00429e+00
  5700    101.183  4.58077e+02 -2.14265e+03 -1.68457e+03 -5.51958e+00
  5710    101.592  4.59931e+02 -2.14504e+03 -1.68511e+03 -5.82952e+00
  5720    101.640  4.60145e+02 -2.14574e+03 -1.68560e+03 -5.94389e+00
  5730    101.474  4.59394e+02 -2.14569e+03 -1.68630e+03 -5.94875e+00
  5740    101.223  4.58261e+02 -2.14485e+03 -1.68659e+03 -5.87073e+00
  5750    100.948  4.57012e+02 -2.14420e+03 -1.68718e+03 -5.78610e+00
  5760    100.653  4.55678e+02 -2.14285e+03 -1.68717e+03 -5.64992e+00
  5770    100.333  4.54229e+02 -2.14219e+03 -1.68796e+03 -5.55103e+00
  5780     99.990  4.52676e+02 -2.14110e+03 -1.68842e+03 -5.42435e+00
  5790     99.646  4.51119e+02 -2.14015e+03 -1.68903e+03 -5.31208e+00
  5800     99.354  4.49799e+02 -2.13935e+03 -1.68955e+03 -5.22323e+00
  5810     99.187  4.49041e+02 -2.13927e+03 -1.69022e+03 -5.20630e+00
  5820     99.194  4.49072e+02 -2.13961e+03 -1.69054e+03 -5.25011e+00
  5830     99.365  4.49847e+02 -2.14079e+03 -1.69094e+03 -5.37532e+00
  5840     99.629  4.51044e+02 -2.14225e+03 -1.69121e+03 -5.53366e+00
  5850     99.875  4.52159e+02 -2.14361e+03 -1.69145e+03 -5.67774e+00
  5860     99.985  4.52654e+02 -2.14461e+03 -1.69195e+03 -5.76659e+00
  5870     99.886  4.52206e+02 -2.14437e+03 -1.69216e+03 -5.73057e+00
  5880     99.603  4.50924e+02 -2.14351e+03 -1.69258e+03 -5.60800e+00
  5890     99.264  4.49391e+02 -2.14231e+03 -1.69292e+03 -5.43554e+00
  5900     99.022  4.48293e+02 -2.14188e+03 -1.69358e+03 -5.30326e+00
  5910     98.936  4.47904e+02 -2.14178e+03 -1.69388e+03 -5.19654e+00
  5920     98.971  4.48064e+02 -2.14208e+03 -1.69402e+03 -5.11511e+00
  5930     99.081  4.48564e+02 -2.14277e+03 -1.69421e+03 -5.05408e+00
  5940     99.269  4.49414e+02 -2.14415e+03 -1.69474e+03 -5.03555e+00
  5950     99.565  4.50754e+02 -2.14556e+03 -1.69481e+03 -5.02798e+00
  5960     99.971  4.52592e+02 -2.14733e+03 -1.69473e+03 -5.05557e+00
  5970    100.437  4.54701e+02 -2.14944e+03 -1.69474e+03 -5.11357e+00
  5980    100.883  4.56721e+02 -2.15136e+03 -1.69463e+03 -5.15961e+00
  5990    101.247  4.58369e+02 -2.15298e+03 -1.69461e+03 -5.18005e+00
  6000    101.507  4.59544e+02 -2.15430e+03 -1.69476e+03 -5.17349e+00
  6010    101.671  4.60289e+02 -2.15526e+03 -1.69497e+03 -5.13927e+00
  6020    101.756  4.60673e+02 -2.15593e+03 -1.69525e+03 -5.08559e+00
  6030    101.768  4.60726e+02 -2.15640e+03 -1.69568e+03 -5.02023e+00
  6040    101.708  4.60456e+02 -2.15679e+03 -1.69634e+03 -4.94957e+00
  6050    101.569  4.59824e+02 -2.15657e+03 -1.69675e+03 -4.83887e+00
  6060    101.333  4.58759e+02 -2.15639e+03 -1.69763e+03 -4.72342e+00
  6070    101.003  4.57265e+02 -2.15555e+03 -1.69828e+03 -4.55922e+00
  6080    100.619  4.55523e+02 -2.15454e+03 -1.69902e+03 -4.37930e+00
  6090    100.230  4.53766e+02 -2.15350e+03 -1.69973e+03 -4.19624e+00
  6100     99.845  4.52020e+02 -2.15217e+03 -1.70015e+03 -3.99155e+00
  6110     99.409  4.50049e+02 -2.15098e+03 -1.70093e+03 -3.77972e+00
  6120     98.868  4.47598e+02 -2.14934e+03 -1.70174e+03 -3.51294e+00
  6130     98.213  4.44635e+02 -2.14703e+03 -1.70240e+03 -3.17487e+00
  6140     97.476  4.41297e+02 -2.14420e+03 -1.70290e+03 -2.77959e+00
  6150     96.680  4.37691e+02 -2.14099e+03 -1.70330e+03 -2.34282e+00
  6160     95.820  4.33800e+02 -2.13705e+03 -1.70325e+03 -1.84654e+00
  6170     94.899  4.29631e+02 -2.13281e+03 -1.70318e+03 -1.32571e+00
  6180     93.982  4.25479e+02 -2.12860e+03 -1.70312e+03 -8.19748e-01
  6190     93.209  4.21978e+02 -2.12458e+03 -1.70260e+03 -3.69191e-01
  6200     92.756  4.19927e+02 -2.12199e+03 -1.70206e+03 -8.38794e-02
  6210     92.777  4.20020e+02 -2.12102e+03 -1.70100e+03 -2.07831e-03
  6220     93.355  4.22641e+02 -2.12232e+03 -1.69968e+03 -1.74142e-01
  6230     94.461  4.27647e+02 -2.12568e+03 -1.69803e+03 -5.70871e-01
  6240     95.913  4.34221e+02 -2.13042e+03 -1.69620e+03 -1.10879e+00
  6250     97.459  4.41218e+02 -2.13539e+03 -1.69417e+03 -1.66099e+00
  6260     98.905  4.47764e+02 -2.13986e+03 -1.69209e+03 -2.13620e+00
  6270    100.162  4.53455e+02 -2.14305e+03 -1.68959e+03 -2.45981e+00
  6280    101.204  4.58175e+02 -2.14566e+03 -1.68749e+03 -2.66217e+00
  6290    102.017  4.61855e+02 -2.14696e+03 -1.68511e+03 -2.69175e+00
  6300    102.569  4.64353e+02 -2.14706e+03 -1.68270e+03 -2.55170e+00
  6310    102.816  4.65472e+02 -2.14592e+03 -1.68044e+03 -2.23913e+00
  6320    102.727  4.65070e+02 -2.14364e+03 -1.67857e+03 -1.76458e+00
  6330    102.327  4.63259e+02 -2.14004e+03 -1.67678e+03 -1.13587e+00
  6340    101.743  4.60614e+02 -2.13547e+03 -1.67486e+03 -4.13789e-01
  6350    101.203  4.58169e+02 -2.13156e+03 -1.67339e+03  2.47139e-01
  6360    100.979  4.57155e+02 -2.12873e+03 -1.67157e+03  7.59669e-01
  6370    101.282  4.58526e+02 -2.12851e+03 -1.66998e+03  9.85525e-01
  6380    102.155  4.62478e+02 -2.13092e+03 -1.66844e+03  9.13243e-01
  6390    103.417  4.68193e+02 -2.13523e+03 -1.66704e+03  6.20410e-01
  6400    104.723  4.74106e+02 -2.13991e+03 -1.66580e+03  2.67082e-01
  6410    105.721  4.78623e+02 -2.14340e+03 -1.66478e+03  1.54593e-02
  6420    106.207  4.80822e+02 -2.14478e+03 -1.66396e+03 -3.23192e-02
  6430    106.175  4.80676e+02 -2.14403e+03 -1.66335e+03  1.33300e-01
  6440    105.763  4.78815e+02 -2.14215e+03 -1.66334e+03  4.32761e-01
  6450    105.136  4.75973e+02 -2.13952e+03 -1.66355e+03  8.16375e-01
  6460    104.378  4.72544e+02 -2.13633e+03 -1.66379e+03  1.25378e+00
  6470    103.492  4.68533e+02 -2.13265e+03 -1.66412e+03  1.73171e+00
  6480    102.478  4.63939e+02 -2.12856e+03 -1.66462e+03  2.23694e+00
  6490    101.429  4.59192e+02 -2.12443e+03 -1.66523e+03  2.72542e+00
  6500    100.529  4.55115e+02 -2.12086e+03 -1.66574e+03  3.12603e+00
  6510     99.925  4.52384e+02 -2.11909e+03 -1.66670e+03  3.33761e+00
  6520     99.590  4.50866e+02 -2.11846e+03 -1.66760e+03  3.40584e+00
  6530     99.319  4.49638e+02 -2.11796e+03 -1.66832e+03  3.42809e+00
  6540     98.904  4.47759e+02 -2.11679e+03 -1.66903e+03  3.49069e+00
  6550     98.289  4.44978e+02 -2.11452e+03 -1.66954e+03  3.63454e+00
  6560     97.591  4.41814e+02 -2.11201e+03 -1.67019e+03  3.79218e+00
  6570     97.000  4.39142e+02 -2.10989e+03 -1.67075e+03  3.89389e+00
  6580     96.658  4.37593e+02 -2.10856e+03 -1.67096e+03  3.89136e+00
  6590     96.595  4.37306e+02 -2.10848e+03 -1.67117e+03  3.74697e+00
  6600     96.786  4.38172e+02 -2.10910e+03 -1.67093e+03  3.49490e+00
  6610     97.220  4.40138e+02 -2.11076e+03 -1.67062e+03  3.11402e+00
  6620     97.915  4.43282e+02 -2.11395e+03 -1.67067e+03  2.57055e+00
  6630     98.891  4.47703e+02 -2.11822e+03 -1.67051e+03  1.89104e+00
  6640    100.136  4.53340e+02 -2.12348e+03 -1.67014e+03  1.08698e+00
  6650    101.580  4.59876e+02 -2.12951e+03 -1.66963e+03  1.90228e-01
  6660    103.116  4.66827e+02 -2.13603e+03 -1.66920e+03 -7.57301e-01
  6670    104.630  4.73682e+02 -2.14269e+03 -1.66901e+03 -1.70584e+00
  6680    106.031  4.80026e+02 -2.14883e+03 -1.66880e+03 -2.58905e+00
  6690    107.231  4.85459e+02 -2.15441e+03 -1.66895e+03 -3.37948e+00
  6700    108.111  4.89442e+02 -2.15913e+03 -1.66969e+03 -4.03178e+00
  6710    108.522  4.91303e+02 -2.16212e+03 -1.67082e+03 -4.46267e+00
  6720    108.335  4.90459e+02 -2.16302e+03 -1.67256e+03 -4.62813e+00
  6730    107.534  4.86830e+02 -2.16139e+03 -1.67456e+03 -4.50154e+00
  6740    106.253  4.81030e+02 -2.15748e+03 -1.67645e+03 -4.12742e+00
  6750    104.723  4.74103e+02 -2.15281e+03 -1.67871e+03 -3.64648e+00
  6760    103.170  4.67073e+02 -2.14847e+03 -1.68139e+03 -3.17466e+00
  6770    101.761  4.60696e+02 -2.14498e+03 -1.68428e+03 -2.78569e+00
  6780    100.612  4.55494e+02 -2.14257e+03 -1.68708e+03 -2.52240e+00
  6790     99.776  4.51709e+02 -2.14148e+03 -1.68977e+03 -2.41467e+00
  6800     99.212  4.49157e+02 -2.14168e+03 -1.69253e+03 -2.45799e+00
  6810     98.801  4.47295e+02 -2.14219e+03 -1.69489e+03 -2.57134e+00
  6820     98.409  4.45519e+02 -2.14301e+03 -1.69749e+03 -2.73211e+00
  6830     97.951  4.43446e+02 -2.14335e+03 -1.69991e+03 -2.87460e+00
  6840     97.450  4.41176e+02 -2.14363e+03 -1.70245e+03 -3.02493e+00
  6850     97.060  4.39411e+02 -2.14402e+03 -1.70461e+03 -3.21618e+00
  6860     96.989  4.39092e+02 -2.14608e+03 -1.70699e+03 -3.57186e+00
  6870     97.319  4.40584e+02 -2.14968e+03 -1.70910e+03 -4.09068e+00
  6880     97.932  4.43361e+02 -2.15456e+03 -1.71120e+03 -4.72949e+00
  6890     98.605  4.46407e+02 -2.15916e+03 -1.71275e+03 -5.34609e+00
  6900     99.112  4.48700e+02 -2.16317e+03 -1.71447e+03 -5.87236e+00
  6910     99.286  4.49492e+02 -2.16566e+03 -1.71617e+03 -6.21390e+00
  6920     99.062  4.48476e+02 -2.16631e+03 -1.71783e+03 -6.33543e+00
  6930     98.495  4.45910e+02 -2.16531e+03 -1.71940e+03 -6.25934e+00
  6940     97.748  4.42529e+02 -2.16359e+03 -1.72106e+03 -6.07328e+00
  6950     97.028  4.39266e+02 -2.16135e+03 -1.72209e+03 -5.82998e+00
  6960     96.518  4.36958e+02 -2.16063e+03 -1.72368e+03 -5.69131e+00
  6970     96.334  4.36125e+02 -2.16095e+03 -1.72482e+03 -5.65066e+00
  6980     96.482  4.36794e+02 -2.16268e+03 -1.72589e+03 -5.73255e+00
  6990     96.854  4.38480e+02 -2.16558e+03 -1.72710e+03 -5.89992e+00
  7000     97.268  4.40352e+02 -2.16799e+03 -1.72763e+03 -6.01327e+00
  7010     97.502  4.41413e+02 -2.16956e+03 -1.72814e+03 -6.00786e+00
  7020     97.346  4.40707e+02 -2.16940e+03 -1.72870e+03 -5.78894e+00
  7030     96.647  4.37542e+02 -2.16667e+03 -1.72913e+03 -5.27751e+00
  7040     95.365  4.31741e+02 -2.16098e+03 -1.72924e+03 -4.45057e+00
  7050     93.635  4.23905e+02 -2.15317e+03 -1.72927e+03 -3.39404e+00
  7060     91.792  4.15565e+02 -2.14429e+03 -1.72872e+03 -2.24487e+00
  7070     90.310  4.08852e+02 -2.13700e+03 -1.72815e+03 -1.26201e+00
  7080     89.583  4.05563e+02 -2.13238e+03 -1.72682e+03 -5.91218e-01
  7090     89.732  4.06235e+02 -2.13155e+03 -1.72532e+03 -3.28646e-01
  7100     90.588  4.10113e+02 -2.13314e+03 -1.72302e+03 -3.62798e-01
  7110     91.842  4.15790e+02 -2.13655e+03 -1.72076e+03 -5.98010e-01
  7120     93.195  4.21917e+02 -2.13991e+03 -1.71799e+03 -8.56061e-01
  7130     94.446  4.27579e+02 -2.14225e+03 -1.71467e+03 -1.03052e+00
  7140     95.501  4.32353e+02 -2.14367e+03 -1.71131e+03 -1.10062e+00
  7150     96.334  4.36126e+02 -2.14389e+03 -1.70776e+03 -1.04180e+00
  7160     96.970  4.39006e+02 -2.14288e+03 -1.70388e+03 -8.59018e-01
  7170     97.505  4.41428e+02 -2.14152e+03 -1.70010e+03 -6.26986e-01
  7180     98.091  4.44078e+02 -2.14018e+03 -1.69610e+03 -3.99421e-01
  7190     98.852  4.47527e+02 -2.13945e+03 -1.69192e+03 -2.39328e-01
  7200     99.809  4.51856e+02 -2.13953e+03 -1.68768e+03 -1.63585e-01
  7210    100.861  4.56622e+02 -2.14026e+03 -1.68364e+03 -1.46400e-01
  7220    101.863  4.61157e+02 -2.14042e+03 -1.67927e+03 -8.84432e-02
  7230    102.694  4.64919e+02 -2.13990e+03 -1.67498e+03  3.76982e-02
  7240    103.347  4.67875e+02 -2.13880e+03 -1.67092e+03  2.24437e-01
  7250    103.990  4.70785e+02 -2.13749e+03 -1.66671e+03  4.18930e-01
  7260    104.886  4.74841e+02 -2.13796e+03 -1.66311e+03  4.59641e-01
  7270    106.115  4.80406e+02 -2.13988e+03 -1.65947e+03  3.55444e-01
  7280    107.454  4.86467e+02 -2.14242e+03 -1.65596e+03  1.96231e-01
  7290    108.562  4.91485e+02 -2.14442e+03 -1.65294e+03  1.10942e-01
  7300    109.177  4.94269e+02 -2.14442e+03 -1.65015e+03  2.33463e-01
  7310    109.185  4.94306e+02 -2.14215e+03 -1.64784e+03  5.95601e-01
  7320    108.638  4.91829e+02 -2.13801e+03 -1.64618e+03  1.15743e+00
  7330    107.702  4.87591e+02 -2.13228e+03 -1.64469e+03  1.86373e+00
  7340    106.577  4.82497e+02 -2.12604e+03 -1.64355e+03  2.60018e+00
  7350    105.449  4.77393e+02 -2.12024e+03 -1.64284e+03  3.26004e+00
  7360    104.528  4.73224e+02 -2.11581e+03 -1.64258e+03  3.73637e+00
  7370    104.058  4.71093e+02 -2.11343e+03 -1.64234e+03  3.93847e+00
  7380    104.213  4.71796e+02 -2.11419e+03 -1.64240e+03  3.76894e+00
  7390    104.952  4.75142e+02 -2.11772e+03 -1.64258e+03  3.26327e+00
  7400    106.017  4.79961e+02 -2.12268e+03 -1.64272e+03  2.55596e+00
  7410    107.095  4.84843e+02 -2.12825e+03 -1.64340e+03  1.76308e+00
  7420    107.965  4.88780e+02 -2.13309e+03 -1.64431e+03  1.02103e+00
  7430    108.503  4.91215e+02 -2.13699e+03 -1.64578e+03  3.83051e-01
  7440    108.623  4.91762e+02 -2.13944e+03 -1.64768e+03 -8.91514e-02
  7450    108.269  4.90159e+02 -2.14021e+03 -1.65005e+03 -3.59723e-01
  7460    107.460  4.86494e+02 -2.13939e+03 -1.65289e+03 -4.27577e-01
  7470    106.306  4.81273e+02 -2.13702e+03 -1.65574e+03 -3.08037e-01
  7480    104.955  4.75155e+02 -2.13423e+03 -1.65908e+03 -9.24259e-02
  7490    103.514  4.68631e+02 -2.13107e+03 -1.66243e+03  1.99010e-01
  7500    102.011  4.61825e+02 -2.12767e+03 -1.66584e+03  5.47995e-01
  7510    100.435  4.54692e+02 -2.12410e+03 -1.66941e+03  9.46252e-01
  7520     98.827  4.47410e+02 -2.12008e+03 -1.67267e+03  1.39744e+00
  7530     97.324  4.40608e+02 -2.11649e+03 -1.67588e+03  1.81813e+00
  7540     96.127  4.35191e+02 -2.11494e+03 -1.67975e+03  2.07203e+00
  7550     95.378  4.31798e+02 -2.11447e+03 -1.68267e+03  2.19164e+00
  7560     95.042  4.30276e+02 -2.11543e+03 -1.68515e+03  2.15949e+00
  7570     94.890  4.29588e+02 -2.11740e+03 -1.68782e+03  2.03697e+00
  7580     94.641  4.28461e+02 -2.11863e+03 -1.69017e+03  1.97710e+00
  7590     94.144  4.26213e+02 -2.11831e+03 -1.69210e+03  2.05392e+00
  7600     93.437  4.23010e+02 -2.11681e+03 -1.69380e+03  2.23965e+00
  7610     92.664  4.19511e+02 -2.11500e+03 -1.69548e+03  2.45668e+00
  7620     91.971  4.16371e+02 -2.11302e+03 -1.69665e+03  2.67016e+00
  7630     91.448  4.14006e+02 -2.11163e+03 -1.69763e+03  2.81537e+00
  7640     91.148  4.12649e+02 -2.11077e+03 -1.69813e+03  2.88286e+00
  7650     91.133  4.12581e+02 -2.11108e+03 -1.69850e+03  2.82045e+00
  7660     91.490  4.14194e+02 -2.11263e+03 -1.69844e+03  2.60724e+00
  7670     92.290  4.17820e+02 -2.11562e+03 -1.69780e+03  2.22268e+00
  7680     93.529  4.23425e+02 -2.12054e+03 -1.69711e+03  1.64586e+00
  7690     95.061  4.30364e+02 -2.12632e+03 -1.69595e+03  9.76171e-01
  7700     96.637  4.37498e+02 -2.13217e+03 -1.69467e+03  3.15163e-01
  7710     97.977  4.43564e+02 -2.13652e+03 -1.69296e+03 -1.83651e-01
  7720     98.864  4.47578e+02 -2.13885e+03 -1.69127e+03 -4.45413e-01
  7730     99.200  4.49103e+02 -2.13848e+03 -1.68937e+03 -4.12135e-01
  7740     99.046  4.48404e+02 -2.13598e+03 -1.68757e+03 -1.31575e-01
  7750     98.595  4.46362e+02 -2.13207e+03 -1.68571e+03  3.12633e-01
  7760     98.101  4.44127e+02 -2.12784e+03 -1.68371e+03  8.03253e-01
  7770     97.769  4.42621e+02 -2.12426e+03 -1.68163e+03  1.23805e+00
  7780     97.676  4.42201e+02 -2.12166e+03 -1.67946e+03  1.57503e+00
  7790     97.809  4.42805e+02 -2.12016e+03 -1.67736e+03  1.80449e+00
  7800     98.143  4.44316e+02 -2.11951e+03 -1.67519e+03  1.94582e+00
  7810     98.665  4.46680e+02 -2.11951e+03 -1.67283e+03  2.01416e+00
  7820     99.346  4.49762e+02 -2.11993e+03 -1.67016e+03  2.03190e+00
  7830    100.128  4.53302e+02 -2.12079e+03 -1.66749e+03  2.01003e+00
  7840    100.985  4.57180e+02 -2.12208e+03 -1.66490e+03  1.95869e+00
  7850    101.940  4.61505e+02 -2.12375e+03 -1.66224e+03  1.88064e+00
  7860    102.984  4.66231e+02 -2.12612e+03 -1.65989e+03  1.76080e+00
  7870    103.998  4.70823e+02 -2.12825e+03 -1.65743e+03  1.67562e+00
  7880    104.801  4.74456e+02 -2.12948e+03 -1.65503e+03  1.68930e+00
  7890    105.260  4.76538e+02 -2.12940e+03 -1.65286e+03  1.83918e+00
  7900    105.393  4.77139e+02 -2.12819e+03 -1.65105e+03  2.09742e+00
  7910    105.387  4.77111e+02 -2.12674e+03 -1.64963e+03  2.36498e+00
  7920    105.530  4.77758e+02 -2.12616e+03 -1.64840e+03  2.51622e+00
  7930    106.001  4.79890e+02 -2.12736e+03 -1.64747e+03  2.45774e+00
  7940    106.705  4.83080e+02 -2.12979e+03 -1.64671e+03  2.23530e+00
  7950    107.365  4.86068e+02 -2.13248e+03 -1.64641e+03  1.95224e+00
  7960    107.739  4.87760e+02 -2.13409e+03 -1.64633e+03  1.73547e+00
  7970    107.750  4.87810e+02 -2.13453e+03 -1.64672e+03  1.60819e+00
  7980    107.504  4.86695e+02 -2.13412e+03 -1.64742e+03  1.54023e+00
  7990    107.210  4.85366e+02 -2.13367e+03 -1.64830e+03  1.45350e+00
  8000    107.042  4.84601e+02 -2.13445e+03 -1.64985e+03  1.24752e+00
  8010    107.011  4.84465e+02 -2.13627e+03 -1.65181e+03  9.34606e-01
  8020    106.995  4.84392e+02 -2.13828e+03 -1.65389e+03  5.90595e-01
  8030    106.859  4.83774e+02 -2.13995e+03 -1.65617e+03  2.72143e-01
  8040    106.546  4.82358e+02 -2.14124e+03 -1.65888e+03 -4.88476e-03
  8050    106.083  4.80261e+02 -2.14225e+03 -1.66199e+03 -2.45662e-01
  8060    105.524  4.77732e+02 -2.14300e+03 -1.66527e+03 -4.57535e-01
  8070    104.900  4.74908e+02 -2.14372e+03 -1.66881e+03 -6.56310e-01
  8080    104.177  4.71632e+02 -2.14411e+03 -1.67248e+03 -8.14596e-01
  8090    103.265  4.67505e+02 -2.14409e+03 -1.67659e+03 -9.11085e-01
  8100    102.093  4.62196e+02 -2.14286e+03 -1.68066e+03 -8.84517e-01
  8110    100.657  4.55698e+02 -2.14062e+03 -1.68492e+03 -7.49431e-01
  8120     99.037  4.48363e+02 -2.13724e+03 -1.68888e+03 -5.14791e-01
  8130     97.360  4.40769e+02 -2.13343e+03 -1.69266e+03 -2.51949e-01
  8140     95.782  4.33627e+02 -2.12989e+03 -1.69626e+03 -3.76995e-02
  8150     94.471  4.27691e+02 -2.12755e+03 -1.69986e+03  3.67093e-02
  8160     93.568  4.23603e+02 -2.12657e+03 -1.70296e+03 -6.37153e-02
  8170     93.140  4.21668e+02 -2.12774e+03 -1.70607e+03 -3.96756e-01
  8180     93.131  4.21625e+02 -2.13054e+03 -1.70892e+03 -9.12935e-01
  8190     93.352  4.22624e+02 -2.13386e+03 -1.71123e+03 -1.50054e+00
  8200     93.541  4.23482e+02 -2.13688e+03 -1.71339e+03 -2.05427e+00
  8210     93.471  4.23166e+02 -2.13828e+03 -1.71511e+03 -2.44565e+00
  8220     93.052  4.21267e+02 -2.13772e+03 -1.71645e+03 -2.63224e+00
  8230     92.388  4.18260e+02 -2.13592e+03 -1.71766e+03 -2.67571e+00
  8240     91.737  4.15313e+02 -2.13383e+03 -1.71852e+03 -2.67882e+00
  8250     91.370  4.13653e+02 -2.13266e+03 -1.71901e+03 -2.76327e+00
  8260     91.413  4.13847e+02 -2.13295e+03 -1.71910e+03 -2.98641e+00
  8270     91.812  4.15653e+02 -2.13451e+03 -1.71885e+03 -3.32786e+00
  8280     92.413  4.18373e+02 -2.13665e+03 -1.71828e+03 -3.71676e+00
  8290     93.075  4.21371e+02 -2.13889e+03 -1.71752e+03 -4.09339e+00
  8300     93.734  4.24353e+02 -2.14059e+03 -1.71624e+03 -4.40037e+00
  8310     94.389  4.27320e+02 -2.14202e+03 -1.71470e+03 -4.64658e+00
  8320     95.055  4.30337e+02 -2.14324e+03 -1.71290e+03 -4.83384e+00
  8330     95.722  4.33354e+02 -2.14433e+03 -1.71097e+03 -4.96221e+00
  8340     96.345  4.36174e+02 -2.14502e+03 -1.70884e+03 -5.00820e+00
  8350     96.875  4.38573e+02 -2.14501e+03 -1.70644e+03 -4.94677e+00
  8360     97.271  4.40366e+02 -2.14438e+03 -1.70402e+03 -4.78085e+00
  8370     97.531  4.41543e+02 -2.14262e+03 -1.70108e+03 -4.48400e+00
  8380     97.712  4.42364e+02 -2.14061e+03 -1.69825e+03 -4.12641e+00
  8390     97.923  4.43321e+02 -2.13858e+03 -1.69526e+03 -3.74824e+00
  8400     98.253  4.44814e+02 -2.13723e+03 -1.69242e+03 -3.41393e+00
  8410     98.720  4.46926e+02 -2.13650e+03 -1.68958e+03 -3.13148e+00
  8420     99.303  4.49566e+02 -2.13603e+03 -1.68646e+03 -2.88179e+00
  8430     99.977  4.52619e+02 -2.13574e+03 -1.68313e+03 -2.66211e+00
  8440    100.691  4.55851e+02 -2.13554e+03 -1.67969e+03 -2.45937e+00
  8450    101.356  4.58860e+02 -2.13549e+03 -1.67663e+03 -2.26686e+00
  8460    101.879  4.61227e+02 -2.13484e+03 -1.67361e+03 -2.02366e+00
  8470    102.208  4.62718e+02 -2.13308e+03 -1.67037e+03 -1.69170e+00
  8480    102.362  4.63414e+02 -2.13054e+03 -1.66713e+03 -1.29638e+00
  8490    102.428  4.63716e+02 -2.12776e+03 -1.66405e+03 -8.90409e-01
  8500    102.543  4.64237e+02 -2.12552e+03 -1.66128e+03 -5.46571e-01
  8510    102.837  4.65566e+02 -2.12430e+03 -1.65874e+03 -3.21194e-01
  8520    103.377  4.68009e+02 -2.12447e+03 -1.65646e+03 -2.48570e-01
  8530    104.131  4.71423e+02 -2.12544e+03 -1.65401e+03 -2.90197e-01
  8540    104.976  4.75251e+02 -2.12705e+03 -1.65180e+03 -4.15471e-01
  8550    105.747  4.78741e+02 -2.12817e+03 -1.64943e+03 -5.23945e-01
  8560    106.282  4.81163e+02 -2.12881e+03 -1.64765e+03 -5.87914e-01
  8570    106.467  4.82000e+02 -2.12812e+03 -1.64612e+03 -5.32846e-01
  8580    106.281  4.81156e+02 -2.12607e+03 -1.64492e+03 -3.52571e-01
  8590    105.822  4.79078e+02 -2.12327e+03 -1.64420e+03 -1.00223e-01
  8600    105.270  4.76582e+02 -2.12017e+03 -1.64359e+03  1.67783e-01
  8610    104.774  4.74337e+02 -2.11761e+03 -1.64328e+03  3.76720e-01
  8620    104.356  4.72443e+02 -2.11507e+03 -1.64262e+03  5.55651e-01
  8630    103.929  4.70509e+02 -2.11308e+03 -1.64258e+03  6.84453e-01
  8640    103.405  4.68136e+02 -2.11086e+03 -1.64273e+03  8.25013e-01
  8650    102.791  4.65358e+02 -2.10843e+03 -1.64307e+03  9.74397e-01
  8660    102.175  4.62571e+02 -2.10594e+03 -1.64337e+03  1.10832e+00
  8670    101.637  4.60132e+02 -2.10417e+03 -1.64403e+03  1.16804e+00
  8680    101.172  4.58030e+02 -2.10269e+03 -1.64466e+03  1.17735e+00
  8690    100.707  4.55921e+02 -2.10108e+03 -1.64516e+03  1.17436e+00
  8700    100.168  4.53485e+02 -2.09902e+03 -1.64553e+03  1.18631e+00
  8710     99.596  4.50893e+02 -2.09736e+03 -1.64647e+03  1.15288e+00
  8720     99.155  4.48895e+02 -2.09606e+03 -1.64716e+03  1.04888e+00
  8730     99.023  4.48301e+02 -2.09617e+03 -1.64787e+03  7.77230e-01
  8740     99.243  4.49294e+02 -2.09771e+03 -1.64842e+03  3.29336e-01
  8750     99.701  4.51367e+02 -2.10047e+03 -1.64910e+03 -2.66106e-01
  8760    100.277  4.53978e+02 -2.10338e+03 -1.64940e+03 -9.21404e-01
  8770    100.969  4.57110e+02 -2.10717e+03 -1.65006e+03 -1.67529e+00
  8780    101.862  4.61151e+02 -2.11171e+03 -1.65056e+03 -2.52127e+00
  8790    102.993  4.66274e+02 -2.11757e+03 -1.65130e+03 -3.48735e+00
  8800    104.233  4.71886e+02 -2.12383e+03 -1.65194e+03 -4.47961e+00
  8810    105.306  4.76744e+02 -2.12996e+03 -1.65322e+03 -5.40637e+00
  8820    105.925  4.79546e+02 -2.13419e+03 -1.65465e+03 -6.09790e+00
  8830    105.917  4.79511e+02 -2.13599e+03 -1.65648e+03 -6.48137e+00
  8840    105.282  4.76633e+02 -2.13513e+03 -1.65850e+03 -6.53696e+00
  8850    104.156  4.71539e+02 -2.13187e+03 -1.66033e+03 -6.30209e+00
  8860    102.717  4.65023e+02 -2.12791e+03 -1.66288e+03 -5.91547e+00
  8870    101.084  4.57628e+02 -2.12283e+03 -1.66520e+03 -5.38344e+00
  8880     99.344  4.49750e+02 -2.11706e+03 -1.66731e+03 -4.76044e+00
  8890     97.603  4.41869e+02 -2.11177e+03 -1.66990e+03 -4.15197e+00
  8900     95.990  4.34567e+02 -2.10661e+03 -1.67204e+03 -3.57321e+00
  8910     94.621  4.28371e+02 -2.10256e+03 -1.67419e+03 -3.11947e+00
  8920     93.590  4.23705e+02 -2.09984e+03 -1.67613e+03 -2.83329e+00
  8930     92.998  4.21023e+02 -2.09858e+03 -1.67756e+03 -2.75252e+00
  8940     92.960  4.20851e+02 -2.09962e+03 -1.67877e+03 -2.95151e+00
  8950     93.553  4.23535e+02 -2.10298e+03 -1.67944e+03 -3.44378e+00
  8960     94.729  4.28858e+02 -2.10880e+03 -1.67995e+03 -4.22249e+00
  8970     96.280  4.35881e+02 -2.11615e+03 -1.68027e+03 -5.17907e+00
  8980     97.884  4.43143e+02 -2.12381e+03 -1.68067e+03 -6.16499e+00
  8990     99.201  4.49106e+02 -2.12988e+03 -1.68077e+03 -6.98380e+00
  9000     99.977  4.52621e+02 -2.13333e+03 -1.68071e+03 -7.51061e+00
  9010    100.103  4.53190e+02 -2.13393e+03 -1.68074e+03 -7.69709e+00
  9020     99.618  4.50994e+02 -2.13173e+03 -1.68073e+03 -7.54484e+00
  9030     98.685  4.46767e+02 -2.12759e+03 -1.68082e+03 -7.13277e+00
  9040     97.519  4.41492e+02 -2.12212e+03 -1.68062e+03 -6.53784e+00
  9050     96.301  4.35977e+02 -2.11645e+03 -1.68048e+03 -5.86795e+00
  9060     95.110  4.30585e+02 -2.11061e+03 -1.68003e+03 -5.14980e+00
  9070     94.015  4.25628e+02 -2.10494e+03 -1.67931e+03 -4.42792e+00
  9080     93.207  4.21968e+02 -2.10055e+03 -1.67858e+03 -3.80882e+00
  9090     92.900  4.20580e+02 -2.09809e+03 -1.67751e+03 -3.36857e+00
  9100     93.076  4.21377e+02 -2.09750e+03 -1.67612e+03 -3.10226e+00
  9110     93.498  4.23287e+02 -2.09788e+03 -1.67459e+03 -2.92069e+00
  9120     93.977  4.25456e+02 -2.09829e+03 -1.67284e+03 -2.73914e+00
  9130     94.498  4.27813e+02 -2.09866e+03 -1.67085e+03 -2.55280e+00
  9140     95.140  4.30721e+02 -2.09898e+03 -1.66826e+03 -2.37892e+00
  9150     95.988  4.34561e+02 -2.09992e+03 -1.66536e+03 -2.27695e+00
  9160     97.074  4.39478e+02 -2.10168e+03 -1.66220e+03 -2.26799e+00
  9170     98.344  4.45227e+02 -2.10444e+03 -1.65921e+03 -2.35717e+00
  9180     99.670  4.51230e+02 -2.10715e+03 -1.65592e+03 -2.45875e+00
  9190    100.909  4.56837e+02 -2.10956e+03 -1.65272e+03 -2.53341e+00
  9200    101.967  4.61628e+02 -2.11085e+03 -1.64923e+03 -2.51467e+00
  9210    102.817  4.65477e+02 -2.11146e+03 -1.64599e+03 -2.42394e+00
  9220    103.474  4.68452e+02 -2.11144e+03 -1.64299e+03 -2.26893e+00
  9230    103.991  4.70793e+02 -2.11068e+03 -1.63989e+03 -2.05546e+00
  9240    104.461  4.72920e+02 -2.10998e+03 -1.63706e+03 -1.85001e+00
  9250    104.978  4.75258e+02 -2.10941e+03 -1.63415e+03 -1.67357e+00
  9260    105.574  4.77959e+02 -2.10964e+03 -1.63168e+03 -1.57327e+00
  9270    106.205  4.80815e+02 -2.11015e+03 -1.62933e+03 -1.50754e+00
  9280    106.776  4.83397e+02 -2.11086e+03 -1.62747e+03 -1.45195e+00
  9290    107.178  4.85219e+02 -2.11126e+03 -1.62604e+03 -1.35145e+00
  9300    107.308  4.85809e+02 -2.11068e+03 -1.62487e+03 -1.14574e+00
  9310    107.077  4.84763e+02 -2.10857e+03 -1.62381e+03 -7.85501e-01
  9320    106.449  4.81918e+02 -2.10486e+03 -1.62295e+03 -2.63655e-01
  9330    105.478  4.77523e+02 -2.09998e+03 -1.62245e+03  3.80036e-01
  9340    104.298  4.72179e+02 -2.09472e+03 -1.62254e+03  1.06796e+00
  9350    103.072  4.66628e+02 -2.08951e+03 -1.62288e+03  1.73860e+00
  9360    101.981  4.61689e+02 -2.08483e+03 -1.62314e+03  2.32508e+00
  9370    101.230  4.58293e+02 -2.08209e+03 -1.62380e+03  2.70062e+00
  9380    101.008  4.57286e+02 -2.08142e+03 -1.62414e+03  2.82594e+00
  9390    101.333  4.58758e+02 -2.08376e+03 -1.62500e+03  2.64049e+00
  9400    102.009  4.61818e+02 -2.08724e+03 -1.62542e+03  2.29226e+00
  9410    102.761  4.65220e+02 -2.09139e+03 -1.62617e+03  1.85757e+00
  9420    103.382  4.68033e+02 -2.09487e+03 -1.62684e+03  1.45781e+00
  9430    103.779  4.69831e+02 -2.09765e+03 -1.62782e+03  1.11266e+00
  9440    103.964  4.70670e+02 -2.09944e+03 -1.62877e+03  8.39639e-01
  9450    104.026  4.70951e+02 -2.10096e+03 -1.63001e+03  5.81651e-01
  9460    104.081  4.71198e+02 -2.10260e+03 -1.63140e+03  2.94991e-01
  9470    104.221  4.71831e+02 -2.10496e+03 -1.63313e+03 -7.22260e-02
  9480    104.454  4.72888e+02 -2.10794e+03 -1.63505e+03 -5.09882e-01
  9490    104.699  4.73997e+02 -2.11111e+03 -1.63711e+03 -9.73510e-01
  9500    104.819  4.74540e+02 -2.11398e+03 -1.63944e+03 -1.40187e+00
  9510    104.676  4.73894e+02 -2.11572e+03 -1.64183e+03 -1.71485e+00
  9520    104.184  4.71664e+02 -2.11631e+03 -1.64465e+03 -1.89149e+00
  9530    103.345  4.67864e+02 -2.11538e+03 -1.64752e+03 -1.90864e+00
  9540    102.266  4.62981e+02 -2.11378e+03 -1.65079e+03 -1.83782e+00
  9550    101.158  4.57965e+02 -2.11208e+03 -1.65412e+03 -1.75365e+00
  9560    100.275  4.53967e+02 -2.11158e+03 -1.65762e+03 -1.77829e+00
  9570     99.755  4.51613e+02 -2.11230e+03 -1.66068e+03 -1.93550e+00
  9580     99.517  4.50536e+02 -2.11424e+03 -1.66371e+03 -2.21099e+00
  9590     99.370  4.49869e+02 -2.11661e+03 -1.66674e+03 -2.51916e+00
  9600     99.181  4.49015e+02 -2.11883e+03 -1.66981e+03 -2.79581e+00
  9610     98.900  4.47742e+02 -2.12064e+03 -1.67290e+03 -3.00947e+00
  9620     98.513  4.45989e+02 -2.12159e+03 -1.67560e+03 -3.12544e+00
  9630     98.029  4.43799e+02 -2.12205e+03 -1.67826e+03 -3.16702e+00
  9640     97.482  4.41322e+02 -2.12237e+03 -1.68105e+03 -3.16068e+00
  9650     96.911  4.38736e+02 -2.12257e+03 -1.68383e+03 -3.11696e+00
  9660     96.330  4.36110e+02 -2.12237e+03 -1.68626e+03 -3.02402e+00
  9670     95.731  4.33396e+02 -2.12166e+03 -1.68826e+03 -2.87817e+00
  9680     95.126  4.30659e+02 -2.12083e+03 -1.69017e+03 -2.70939e+00
  9690     94.584  4.28204e+02 -2.12007e+03 -1.69187e+03 -2.54548e+00
  9700     94.191  4.26422e+02 -2.11982e+03 -1.69340e+03 -2.43148e+00
  9710     93.979  4.25465e+02 -2.12031e+03 -1.69484e+03 -2.39136e+00
  9720     93.904  4.25124e+02 -2.12109e+03 -1.69596e+03 -2.39595e+00
  9730     93.878  4.25007e+02 -2.12203e+03 -1.69702e+03 -2.42711e+00
  9740     93.838  4.24824e+02 -2.12244e+03 -1.69761e+03 -2.43522e+00
  9750     93.785  4.24587e+02 -2.12250e+03 -1.69792e+03 -2.43524e+00
  9760     93.807  4.24687e+02 -2.12288e+03 -1.69819e+03 -2.48284e+00
  9770     94.058  4.25821e+02 -2.12377e+03 -1.69795e+03 -2.61621e+00
  9780     94.664  4.28565e+02 -2.12588e+03 -1.69732e+03 -2.89913e+00
  9790     95.572  4.32678e+02 -2.12931e+03 -1.69664e+03 -3.32640e+00
  9800     96.578  4.37230e+02 -2.13288e+03 -1.69565e+03 -3.79050e+00
  9810     97.510  4.41450e+02 -2.13597e+03 -1.69452e+03 -4.22190e+00
  9820     98.314  4.45090e+02 -2.13811e+03 -1.69302e+03 -4.57726e+00
  9830     98.995  4.48173e+02 -2.13957e+03 -1.69140e+03 -4.87004e+00
  9840     99.558  4.50724e+02 -2.14096e+03 -1.69024e+03 -5.13697e+00
  9850     99.987  4.52662e+02 -2.14154e+03 -1.68888e+03 -5.32867e+00
  9860    100.254  4.53873e+02 -2.14147e+03 -1.68760e+03 -5.44794e+00
  9870    100.351  4.54311e+02 -2.14065e+03 -1.68634e+03 -5.48639e+00
  9880    100.307  4.54112e+02 -2.13892e+03 -1.68481e+03 -5.43718e+00
  9890    100.184  4.53557e+02 -2.13695e+03 -1.68339e+03 -5.34965e+00
  9900    100.059  4.52992e+02 -2.13493e+03 -1.68194e+03 -5.24697e+00
  9910    100.001  4.52729e+02 -2.13305e+03 -1.68032e+03 -5.14962e+00
  9920    100.056  4.52977e+02 -2.13216e+03 -1.67919e+03 -5.11352e+00
  9930    100.233  4.53776e+02 -2.13163e+03 -1.67785e+03 -5.09648e+00
  9940    100.493  4.54955e+02 -2.13133e+03 -1.67637e+03 -5.08166e+00
  9950    100.761  4.56170e+02 -2.13132e+03 -1.67516e+03 -5.05591e+00
  9960    100.952  4.57032e+02 -2.13077e+03 -1.67374e+03 -4.95021e+00
  9970    100.988  4.57195e+02 -2.12956e+03 -1.67237e+03 -4.74333e+00
  9980    100.817  4.56423e+02 -2.12759e+03 -1.67117e+03 -4.42214e+00
  9990    100.442  4.54723e+02 -2.12467e+03 -1.66995e+03 -3.97774e+00
