Step    T(K)    KE(kJ)    PE(kJ)    TotE(kJ)    P(MPa)
     0      0.102  4.61347e-01 -1.63103e+03 -1.63057e+03  1.97224e+02
    10      0.430  1.94676e+00 -1.63251e+03 -1.63056e+03  1.96935e+02
    20      1.304  5.90236e+00 -1.63640e+03 -1.63050e+03  1.96166e+02
    30      2.682  1.21438e+01 -1.64240e+03 -1.63026e+03  1.94957e+02
    40      4.513  2.04314e+01 -1.65011e+03 -1.62968e+03  1.93369e+02
    50      6.745  3.05362e+01 -1.65906e+03 -1.62852e+03  1.91468e+02
    60      9.344  4.23017e+01 -1.66883e+03 -1.62653e+03  1.89320e+02
    70     12.300  5.56867e+01 -1.67897e+03 -1.62328e+03  1.86991e+02
    80     15.635  7.07849e+01 -1.68921e+03 -1.61843e+03  1.84534e+02
    90     19.401  8.78324e+01 -1.69898e+03 -1.61114e+03  1.82015e+02
   100     23.670  1.07160e+02 -1.70896e+03 -1.60180e+03  1.79418e+02
   110     28.549  1.29246e+02 -1.71313e+03 -1.58388e+03  1.77145e+02
   120     34.158  1.54641e+02 -1.72135e+03 -1.56671e+03  1.74617e+02
   130     40.608  1.83840e+02 -1.73166e+03 -1.54782e+03  1.71982e+02
   140     48.031  2.17446e+02 -1.74102e+03 -1.52357e+03  1.69461e+02
   150     56.572  2.56112e+02 -1.74855e+03 -1.49244e+03  1.67144e+02
   160     66.376  3.00497e+02 -1.75630e+03 -1.45580e+03  1.64950e+02
   170     77.572  3.51185e+02 -1.76297e+03 -1.41179e+03  1.62998e+02
   180     90.282  4.08728e+02 -1.76666e+03 -1.35793e+03  1.61452e+02
   190    104.586  4.73483e+02 -1.76989e+03 -1.29640e+03  1.60202e+02
   200    120.497  5.45518e+02 -1.77143e+03 -1.22592e+03  1.59355e+02
   210    137.949  6.24525e+02 -1.77036e+03 -1.14584e+03  1.58992e+02
   220    156.752  7.09650e+02 -1.76774e+03 -1.05809e+03  1.59050e+02
   230    176.565  7.99351e+02 -1.76284e+03 -9.63494e+02  1.59550e+02
   240    196.861  8.91232e+02 -1.75548e+03 -8.64249e+02  1.60445e+02
   250    216.897  9.81942e+02 -1.74621e+03 -7.64267e+02  1.61609e+02
   260    235.723  1.06717e+03 -1.73341e+03 -6.66239e+02  1.63019e+02
   270    252.213  1.14182e+03 -1.71814e+03 -5.76312e+02  1.64467e+02
   280    265.153  1.20041e+03 -1.70004e+03 -4.99632e+02  1.65820e+02
   290    273.434  1.23790e+03 -1.67860e+03 -4.40699e+02  1.66956e+02
   300    276.443  1.25152e+03 -1.65362e+03 -4.02100e+02  1.67729e+02
   310    274.407  1.24230e+03 -1.62649e+03 -3.84193e+02  1.67889e+02
   320    268.178  1.21410e+03 -1.60284e+03 -3.88733e+02  1.66954e+02
   330    258.597  1.17073e+03 -1.58510e+03 -4.14372e+02  1.64750e+02
   340    246.385  1.11544e+03 -1.57294e+03 -4.57500e+02  1.61380e+02
   350    232.412  1.05218e+03 -1.56691e+03 -5.14732e+02  1.56940e+02
   360    217.462  9.84498e+02 -1.56702e+03 -5.82527e+02  1.51602e+02
   370    201.919  9.14133e+02 -1.57073e+03 -6.56597e+02  1.45748e+02
   380    185.954  8.41854e+02 -1.57579e+03 -7.33933e+02  1.39759e+02
   390    169.811  7.68773e+02 -1.58075e+03 -8.11979e+02  1.33928e+02
   400    153.888  6.96687e+02 -1.58486e+03 -8.88174e+02  1.28437e+02
   410    138.639  6.27651e+02 -1.58806e+03 -9.60414e+02  1.23356e+02
   420    124.462  5.63468e+02 -1.59090e+03 -1.02743e+03  1.18674e+02
   430    111.633  5.05389e+02 -1.59442e+03 -1.08903e+03  1.14310e+02
   440    100.289  4.54030e+02 -1.59868e+03 -1.14465e+03  1.10233e+02
   450     90.436  4.09424e+02 -1.60446e+03 -1.19503e+03  1.06361e+02
   460     81.982  3.71151e+02 -1.61144e+03 -1.24029e+03  1.02681e+02
   470     74.778  3.38537e+02 -1.61931e+03 -1.28077e+03  9.91835e+01
   480     68.671  3.10891e+02 -1.62792e+03 -1.31703e+03  9.58509e+01
   490     63.536  2.87643e+02 -1.63696e+03 -1.34931e+03  9.26719e+01
   500     59.291  2.68423e+02 -1.64687e+03 -1.37844e+03  8.95830e+01
   510     55.893  2.53038e+02 -1.65796e+03 -1.40493e+03  8.65253e+01
   520     53.318  2.41383e+02 -1.67026e+03 -1.42887e+03  8.34572e+01
   530     51.541  2.33336e+02 -1.68412e+03 -1.45079e+03  8.03196e+01
   540     50.514  2.28687e+02 -1.69957e+03 -1.47088e+03  7.70849e+01
   550     50.164  2.27103e+02 -1.71690e+03 -1.48980e+03  7.37182e+01
   560     50.399  2.28169e+02 -1.73567e+03 -1.50751e+03  7.02420e+01
   570     51.125  2.31453e+02 -1.75581e+03 -1.52436e+03  6.66619e+01
   580     52.261  2.36596e+02 -1.77695e+03 -1.54035e+03  6.30053e+01
   590     53.750  2.43338e+02 -1.79888e+03 -1.55554e+03  5.92887e+01
   600     55.557  2.51519e+02 -1.82140e+03 -1.56988e+03  5.55271e+01
   610     57.657  2.61026e+02 -1.84496e+03 -1.58393e+03  5.16953e+01
   620     60.026  2.71749e+02 -1.86904e+03 -1.59729e+03  4.78279e+01
   630     62.626  2.83524e+02 -1.89355e+03 -1.61003e+03  4.39359e+01
   640     65.407  2.96114e+02 -1.91814e+03 -1.62203e+03  4.00504e+01
   650     68.298  3.09200e+02 -1.94277e+03 -1.63357e+03  3.61864e+01
   660     71.218  3.22419e+02 -1.96712e+03 -1.64470e+03  3.23781e+01
   670     74.087  3.35407e+02 -1.99068e+03 -1.65527e+03  2.86716e+01
   680     76.841  3.47876e+02 -2.01328e+03 -1.66540e+03  2.50898e+01
   690     79.438  3.59636e+02 -2.03487e+03 -1.67524e+03  2.16428e+01
   700     81.858  3.70589e+02 -2.05497e+03 -1.68438e+03  1.83661e+01
   710     84.075  3.80626e+02 -2.07358e+03 -1.69295e+03  1.52649e+01
   720     86.043  3.89535e+02 -2.09080e+03 -1.70127e+03  1.23428e+01
   730     87.705  3.97061e+02 -2.10647e+03 -1.70941e+03  9.62340e+00
   740     89.024  4.03032e+02 -2.11985e+03 -1.71682e+03  7.16071e+00
   750     90.023  4.07554e+02 -2.13131e+03 -1.72375e+03  4.93399e+00
   760     90.798  4.11064e+02 -2.14147e+03 -1.73041e+03  2.89401e+00
   770     91.476  4.14130e+02 -2.15114e+03 -1.73701e+03  9.77070e-01
   780     92.099  4.16951e+02 -2.15971e+03 -1.74276e+03 -7.81859e-01
   790     92.571  4.19088e+02 -2.16760e+03 -1.74851e+03 -2.39039e+00
   800     92.736  4.19837e+02 -2.17379e+03 -1.75395e+03 -3.75991e+00
   810     92.515  4.18837e+02 -2.17777e+03 -1.75893e+03 -4.84655e+00
   820     91.948  4.16270e+02 -2.17957e+03 -1.76330e+03 -5.65836e+00
   830     91.143  4.12623e+02 -2.18027e+03 -1.76765e+03 -6.28147e+00
   840     90.190  4.08311e+02 -2.17978e+03 -1.77147e+03 -6.72978e+00
   850     89.158  4.03636e+02 -2.17860e+03 -1.77496e+03 -7.05127e+00
   860     88.140  3.99031e+02 -2.17681e+03 -1.77777e+03 -7.27282e+00
   870     87.318  3.95308e+02 -2.17553e+03 -1.78022e+03 -7.49793e+00
   880     86.898  3.93407e+02 -2.17561e+03 -1.78221e+03 -7.81547e+00
   890     86.965  3.93710e+02 -2.17716e+03 -1.78345e+03 -8.24674e+00
   900     87.420  3.95770e+02 -2.18017e+03 -1.78440e+03 -8.77692e+00
   910     88.094  3.98819e+02 -2.18350e+03 -1.78468e+03 -9.30484e+00
   920     88.838  4.02190e+02 -2.18669e+03 -1.78450e+03 -9.77336e+00
   930     89.533  4.05337e+02 -2.18930e+03 -1.78397e+03 -1.01301e+01
   940     90.075  4.07792e+02 -2.19075e+03 -1.78296e+03 -1.03195e+01
   950     90.396  4.09243e+02 -2.19086e+03 -1.78162e+03 -1.03202e+01
   960     90.491  4.09673e+02 -2.18949e+03 -1.77982e+03 -1.01266e+01
   970     90.442  4.09453e+02 -2.18738e+03 -1.77793e+03 -9.80396e+00
   980     90.408  4.09297e+02 -2.18457e+03 -1.77528e+03 -9.38825e+00
   990     90.560  4.09984e+02 -2.18262e+03 -1.77263e+03 -9.00738e+00
  1000     91.002  4.11988e+02 -2.18127e+03 -1.76929e+03 -8.66602e+00
  1010     91.711  4.15196e+02 -2.18070e+03 -1.76551e+03 -8.36803e+00
  1020     92.529  4.18901e+02 -2.18051e+03 -1.76161e+03 -8.05926e+00
  1030     93.208  4.21975e+02 -2.17947e+03 -1.75750e+03 -7.62112e+00
  1040     93.490  4.23252e+02 -2.17576e+03 -1.75251e+03 -6.90031e+00
  1050     93.223  4.22043e+02 -2.16958e+03 -1.74754e+03 -5.89450e+00
  1060     92.497  4.18754e+02 -2.16122e+03 -1.74246e+03 -4.65392e+00
  1070     91.711  4.15198e+02 -2.15198e+03 -1.73678e+03 -3.34553e+00
  1080     91.427  4.13912e+02 -2.14467e+03 -1.73076e+03 -2.25343e+00
  1090     92.024  4.16611e+02 -2.14109e+03 -1.72448e+03 -1.56401e+00
  1100     93.511  4.23346e+02 -2.14126e+03 -1.71791e+03 -1.29023e+00
  1110     95.654  4.33048e+02 -2.14390e+03 -1.71086e+03 -1.31546e+00
  1120     98.139  4.44299e+02 -2.14779e+03 -1.70349e+03 -1.50561e+00
  1130    100.669  4.55749e+02 -2.15148e+03 -1.69573e+03 -1.71285e+00
  1140    103.024  4.66412e+02 -2.15444e+03 -1.68803e+03 -1.86002e+00
  1150    105.124  4.75920e+02 -2.15613e+03 -1.68021e+03 -1.89343e+00
  1160    106.997  4.84399e+02 -2.15666e+03 -1.67226e+03 -1.81985e+00
  1170    108.684  4.92038e+02 -2.15644e+03 -1.66440e+03 -1.66746e+00
  1180    110.164  4.98739e+02 -2.15578e+03 -1.65704e+03 -1.45190e+00
  1190    111.366  5.04180e+02 -2.15447e+03 -1.65029e+03 -1.15112e+00
  1200    112.215  5.08023e+02 -2.15177e+03 -1.64375e+03 -7.09799e-01
  1210    112.682  5.10138e+02 -2.14836e+03 -1.63823e+03 -1.69506e-01
  1220    112.823  5.10774e+02 -2.14398e+03 -1.63321e+03  4.71111e-01
  1230    112.756  5.10471e+02 -2.13919e+03 -1.62872e+03  1.15042e+00
  1240    112.593  5.09732e+02 -2.13477e+03 -1.62504e+03  1.79199e+00
  1250    112.389  5.08812e+02 -2.13080e+03 -1.62198e+03  2.36936e+00
  1260    112.181  5.07868e+02 -2.12733e+03 -1.61946e+03  2.85805e+00
  1270    112.030  5.07185e+02 -2.12498e+03 -1.61779e+03  3.19748e+00
  1280    112.017  5.07124e+02 -2.12376e+03 -1.61663e+03  3.36566e+00
  1290    112.185  5.07888e+02 -2.12367e+03 -1.61578e+03  3.35128e+00
  1300    112.502  5.09322e+02 -2.12512e+03 -1.61580e+03  3.13714e+00
  1310    112.824  5.10781e+02 -2.12713e+03 -1.61635e+03  2.81769e+00
  1320    112.923  5.11226e+02 -2.12884e+03 -1.61762e+03  2.49752e+00
  1330    112.574  5.09648e+02 -2.12892e+03 -1.61927e+03  2.31065e+00
  1340    111.659  5.05505e+02 -2.12719e+03 -1.62169e+03  2.30159e+00
  1350    110.214  4.98964e+02 -2.12390e+03 -1.62494e+03  2.46066e+00
  1360    108.421  4.90848e+02 -2.11921e+03 -1.62836e+03  2.75209e+00
  1370    106.565  4.82444e+02 -2.11453e+03 -1.63209e+03  3.04204e+00
  1380    104.931  4.75048e+02 -2.11150e+03 -1.63645e+03  3.18129e+00
  1390    103.677  4.69371e+02 -2.10991e+03 -1.64054e+03  3.15116e+00
  1400    102.759  4.65212e+02 -2.11009e+03 -1.64488e+03  2.93390e+00
  1410    102.011  4.61826e+02 -2.11129e+03 -1.64946e+03  2.59782e+00
  1420    101.309  4.58648e+02 -2.11247e+03 -1.65382e+03  2.22594e+00
  1430    100.665  4.55735e+02 -2.11389e+03 -1.65815e+03  1.80430e+00
  1440    100.164  4.53465e+02 -2.11606e+03 -1.66260e+03  1.29229e+00
  1450     99.831  4.51955e+02 -2.11919e+03 -1.66723e+03  6.79689e-01
  1460     99.636  4.51074e+02 -2.12242e+03 -1.67134e+03  3.00582e-02
  1470     99.548  4.50674e+02 -2.12638e+03 -1.67571e+03 -6.80332e-01
  1480     99.508  4.50495e+02 -2.13066e+03 -1.68017e+03 -1.40684e+00
  1490     99.417  4.50083e+02 -2.13466e+03 -1.68457e+03 -2.08882e+00
  1500     99.179  4.49007e+02 -2.13805e+03 -1.68905e+03 -2.68452e+00
  1510     98.750  4.47065e+02 -2.14061e+03 -1.69354e+03 -3.16724e+00
  1520     98.135  4.44279e+02 -2.14209e+03 -1.69781e+03 -3.52156e+00
  1530     97.362  4.40781e+02 -2.14257e+03 -1.70178e+03 -3.75694e+00
  1540     96.472  4.36753e+02 -2.14286e+03 -1.70610e+03 -3.93490e+00
  1550     95.517  4.32429e+02 -2.14207e+03 -1.70964e+03 -4.01576e+00
  1560     94.576  4.28169e+02 -2.14136e+03 -1.71319e+03 -4.08764e+00
  1570     93.763  4.24485e+02 -2.14112e+03 -1.71663e+03 -4.19643e+00
  1580     93.182  4.21858e+02 -2.14160e+03 -1.71974e+03 -4.37580e+00
  1590     92.848  4.20343e+02 -2.14273e+03 -1.72238e+03 -4.62307e+00
  1600     92.658  4.19486e+02 -2.14446e+03 -1.72498e+03 -4.91975e+00
  1610     92.504  4.18786e+02 -2.14598e+03 -1.72720e+03 -5.19667e+00
  1620     92.360  4.18134e+02 -2.14715e+03 -1.72901e+03 -5.44018e+00
  1630     92.271  4.17732e+02 -2.14844e+03 -1.73070e+03 -5.68452e+00
  1640     92.267  4.17712e+02 -2.14936e+03 -1.73165e+03 -5.90247e+00
  1650     92.322  4.17964e+02 -2.15023e+03 -1.73227e+03 -6.10740e+00
  1660     92.389  4.18266e+02 -2.15074e+03 -1.73248e+03 -6.27114e+00
  1670     92.435  4.18476e+02 -2.15096e+03 -1.73249e+03 -6.38988e+00
  1680     92.455  4.18565e+02 -2.15088e+03 -1.73232e+03 -6.46025e+00
  1690     92.451  4.18547e+02 -2.15024e+03 -1.73169e+03 -6.46693e+00
  1700     92.429  4.18447e+02 -2.14929e+03 -1.73084e+03 -6.42930e+00
  1710     92.405  4.18336e+02 -2.14775e+03 -1.72941e+03 -6.33609e+00
  1720     92.433  4.18463e+02 -2.14630e+03 -1.72784e+03 -6.24188e+00
  1730     92.611  4.19269e+02 -2.14556e+03 -1.72629e+03 -6.20124e+00
  1740     93.019  4.21119e+02 -2.14512e+03 -1.72400e+03 -6.20285e+00
  1750     93.649  4.23969e+02 -2.14571e+03 -1.72174e+03 -6.28701e+00
  1760     94.402  4.27379e+02 -2.14648e+03 -1.71911e+03 -6.38179e+00
  1770     95.162  4.30819e+02 -2.14691e+03 -1.71609e+03 -6.42943e+00
  1780     95.842  4.33898e+02 -2.14689e+03 -1.71299e+03 -6.40646e+00
  1790     96.407  4.36458e+02 -2.14611e+03 -1.70965e+03 -6.28578e+00
  1800     96.899  4.38685e+02 -2.14487e+03 -1.70619e+03 -6.09518e+00
  1810     97.430  4.41087e+02 -2.14386e+03 -1.70277e+03 -5.89773e+00
  1820     98.098  4.44112e+02 -2.14286e+03 -1.69875e+03 -5.70129e+00
  1830     98.886  4.47680e+02 -2.14201e+03 -1.69433e+03 -5.51337e+00
  1840     99.659  4.51181e+02 -2.14136e+03 -1.69018e+03 -5.31940e+00
  1850    100.272  4.53955e+02 -2.13976e+03 -1.68581e+03 -5.02766e+00
  1860    100.660  4.55712e+02 -2.13723e+03 -1.68152e+03 -4.63343e+00
  1870    100.870  4.56662e+02 -2.13435e+03 -1.67769e+03 -4.18541e+00
  1880    101.027  4.57372e+02 -2.13103e+03 -1.67366e+03 -3.70605e+00
  1890    101.257  4.58414e+02 -2.12766e+03 -1.66925e+03 -3.24631e+00
  1900    101.609  4.60005e+02 -2.12543e+03 -1.66542e+03 -2.89338e+00
  1910    102.044  4.61976e+02 -2.12365e+03 -1.66167e+03 -2.60557e+00
  1920    102.536  4.64202e+02 -2.12211e+03 -1.65791e+03 -2.36930e+00
  1930    103.174  4.67092e+02 -2.12131e+03 -1.65422e+03 -2.23023e+00
  1940    104.155  4.71534e+02 -2.12182e+03 -1.65029e+03 -2.25054e+00
  1950    105.583  4.78000e+02 -2.12461e+03 -1.64661e+03 -2.49769e+00
  1960    107.298  4.85761e+02 -2.12886e+03 -1.64310e+03 -2.88641e+00
  1970    108.934  4.93169e+02 -2.13322e+03 -1.64005e+03 -3.26536e+00
  1980    110.114  4.98510e+02 -2.13599e+03 -1.63748e+03 -3.46184e+00
  1990    110.582  5.00628e+02 -2.13607e+03 -1.63545e+03 -3.36616e+00
  2000    110.284  4.99281e+02 -2.13291e+03 -1.63363e+03 -2.94075e+00
  2010    109.386  4.95215e+02 -2.12744e+03 -1.63222e+03 -2.28245e+00
  2020    108.203  4.89861e+02 -2.12129e+03 -1.63143e+03 -1.55824e+00
  2030    107.057  4.84669e+02 -2.11615e+03 -1.63148e+03 -9.42678e-01
  2040    106.184  4.80719e+02 -2.11219e+03 -1.63147e+03 -5.01939e-01
  2050    105.734  4.78681e+02 -2.11061e+03 -1.63193e+03 -3.44982e-01
  2060    105.760  4.78801e+02 -2.11106e+03 -1.63226e+03 -4.60297e-01
  2070    106.199  4.80785e+02 -2.11414e+03 -1.63335e+03 -8.66307e-01
  2080    106.874  4.83841e+02 -2.11886e+03 -1.63502e+03 -1.46098e+00
  2090    107.536  4.86839e+02 -2.12357e+03 -1.63673e+03 -2.08257e+00
  2100    107.910  4.88531e+02 -2.12732e+03 -1.63879e+03 -2.61146e+00
  2110    107.781  4.87951e+02 -2.12900e+03 -1.64105e+03 -2.93072e+00
  2120    107.082  4.84785e+02 -2.12853e+03 -1.64375e+03 -3.01657e+00
  2130    105.914  4.79496e+02 -2.12591e+03 -1.64642e+03 -2.88378e+00
  2140    104.515  4.73161e+02 -2.12267e+03 -1.64951e+03 -2.66917e+00
  2150    103.169  4.67069e+02 -2.11973e+03 -1.65267e+03 -2.48457e+00
  2160    102.097  4.62217e+02 -2.11836e+03 -1.65615e+03 -2.45111e+00
  2170    101.368  4.58918e+02 -2.11853e+03 -1.65961e+03 -2.58587e+00
  2180    100.919  4.56881e+02 -2.12010e+03 -1.66322e+03 -2.87296e+00
  2190    100.632  4.55585e+02 -2.12230e+03 -1.66671e+03 -3.24620e+00
  2200    100.423  4.54640e+02 -2.12500e+03 -1.67036e+03 -3.68013e+00
  2210    100.234  4.53782e+02 -2.12741e+03 -1.67363e+03 -4.11084e+00
  2220    100.010  4.52766e+02 -2.13013e+03 -1.67737e+03 -4.55937e+00
  2230     99.697  4.51349e+02 -2.13242e+03 -1.68107e+03 -4.96568e+00
  2240     99.251  4.49329e+02 -2.13415e+03 -1.68482e+03 -5.30816e+00
  2250     98.626  4.46503e+02 -2.13505e+03 -1.68855e+03 -5.55556e+00
  2260     97.765  4.42603e+02 -2.13441e+03 -1.69181e+03 -5.64822e+00
  2270     96.612  4.37386e+02 -2.13248e+03 -1.69509e+03 -5.58914e+00
  2280     95.170  4.30855e+02 -2.12941e+03 -1.69856e+03 -5.38910e+00
  2290     93.548  4.23513e+02 -2.12495e+03 -1.70144e+03 -5.05376e+00
  2300     91.968  4.16361e+02 -2.12038e+03 -1.70402e+03 -4.70397e+00
  2310     90.683  4.10540e+02 -2.11673e+03 -1.70619e+03 -4.45218e+00
  2320     89.874  4.06878e+02 -2.11474e+03 -1.70786e+03 -4.38093e+00
  2330     89.597  4.05627e+02 -2.11473e+03 -1.70910e+03 -4.52051e+00
  2340     89.794  4.06519e+02 -2.11667e+03 -1.71015e+03 -4.85810e+00
  2350     90.354  4.09052e+02 -2.11976e+03 -1.71071e+03 -5.31703e+00
  2360     91.182  4.12803e+02 -2.12363e+03 -1.71083e+03 -5.84615e+00
  2370     92.205  4.17432e+02 -2.12775e+03 -1.71032e+03 -6.38421e+00
  2380     93.313  4.22450e+02 -2.13194e+03 -1.70949e+03 -6.88823e+00
  2390     94.362  4.27200e+02 -2.13555e+03 -1.70835e+03 -7.28406e+00
  2400     95.235  4.31148e+02 -2.13833e+03 -1.70718e+03 -7.53183e+00
  2410     95.906  4.34189e+02 -2.13993e+03 -1.70574e+03 -7.60661e+00
  2420     96.459  4.36691e+02 -2.14081e+03 -1.70412e+03 -7.55108e+00
  2430     97.004  4.39159e+02 -2.14166e+03 -1.70250e+03 -7.43013e+00
  2440     97.554  4.41647e+02 -2.14221e+03 -1.70056e+03 -7.23165e+00
  2450     97.979  4.43572e+02 -2.14197e+03 -1.69840e+03 -6.91033e+00
  2460     98.130  4.44257e+02 -2.14032e+03 -1.69606e+03 -6.40848e+00
  2470     97.978  4.43568e+02 -2.13743e+03 -1.69387e+03 -5.74044e+00
  2480     97.648  4.42077e+02 -2.13350e+03 -1.69143e+03 -4.94683e+00
  2490     97.350  4.40727e+02 -2.12983e+03 -1.68911e+03 -4.15342e+00
  2500     97.250  4.40274e+02 -2.12700e+03 -1.68673e+03 -3.43544e+00
  2510     97.399  4.40949e+02 -2.12526e+03 -1.68431e+03 -2.82799e+00
  2520     97.755  4.42558e+02 -2.12419e+03 -1.68163e+03 -2.30860e+00
  2530     98.260  4.44845e+02 -2.12381e+03 -1.67897e+03 -1.87891e+00
  2540     98.911  4.47791e+02 -2.12338e+03 -1.67559e+03 -1.49861e+00
  2550     99.752  4.51598e+02 -2.12399e+03 -1.67240e+03 -1.24724e+00
  2560    100.803  4.56358e+02 -2.12560e+03 -1.66924e+03 -1.12710e+00
  2570    102.001  4.61781e+02 -2.12808e+03 -1.66630e+03 -1.12087e+00
  2580    103.194  4.67181e+02 -2.13066e+03 -1.66348e+03 -1.15451e+00
  2590    104.212  4.71789e+02 -2.13229e+03 -1.66050e+03 -1.13356e+00
  2600    104.935  4.75063e+02 -2.13286e+03 -1.65780e+03 -1.02777e+00
  2610    105.358  4.76980e+02 -2.13219e+03 -1.65521e+03 -8.23482e-01
  2620    105.627  4.78198e+02 -2.13118e+03 -1.65298e+03 -5.98815e-01
  2630    105.988  4.79830e+02 -2.13058e+03 -1.65075e+03 -4.36048e-01
  2640    106.589  4.82554e+02 -2.13177e+03 -1.64921e+03 -4.38951e-01
  2650    107.321  4.85868e+02 -2.13359e+03 -1.64773e+03 -5.16307e-01
  2660    107.917  4.88563e+02 -2.13512e+03 -1.64656e+03 -5.64778e-01
  2670    108.157  4.89651e+02 -2.13520e+03 -1.64555e+03 -4.73503e-01
  2680    107.968  4.88793e+02 -2.13406e+03 -1.64527e+03 -2.39877e-01
  2690    107.404  4.86244e+02 -2.13148e+03 -1.64524e+03  1.43027e-01
  2700    106.603  4.82615e+02 -2.12833e+03 -1.64572e+03  5.97931e-01
  2710    105.688  4.78473e+02 -2.12480e+03 -1.64632e+03  1.08992e+00
  2720    104.705  4.74022e+02 -2.12146e+03 -1.64743e+03  1.56905e+00
  2730    103.636  4.69183e+02 -2.11775e+03 -1.64857e+03  2.06236e+00
  2740    102.476  4.63932e+02 -2.11351e+03 -1.64958e+03  2.57056e+00
  2750    101.329  4.58739e+02 -2.10966e+03 -1.65092e+03  3.00772e+00
  2760    100.471  4.54853e+02 -2.10748e+03 -1.65263e+03  3.24265e+00
  2770    100.215  4.53696e+02 -2.10757e+03 -1.65387e+03  3.18660e+00
  2780    100.608  4.55474e+02 -2.11087e+03 -1.65540e+03  2.77466e+00
  2790    101.367  4.58909e+02 -2.11575e+03 -1.65684e+03  2.15790e+00
  2800    102.152  4.62463e+02 -2.12096e+03 -1.65850e+03  1.48060e+00
  2810    102.732  4.65089e+02 -2.12551e+03 -1.66042e+03  8.59051e-01
  2820    102.984  4.66230e+02 -2.12868e+03 -1.66245e+03  3.73868e-01
  2830    102.863  4.65684e+02 -2.13001e+03 -1.66433e+03  7.35316e-02
  2840    102.390  4.63543e+02 -2.12988e+03 -1.66633e+03 -5.97357e-02
  2850    101.654  4.60210e+02 -2.12868e+03 -1.66847e+03 -6.31786e-02
  2860    100.796  4.56328e+02 -2.12709e+03 -1.67076e+03 -2.65833e-03
  2870     99.959  4.52538e+02 -2.12542e+03 -1.67288e+03  7.54957e-02
  2880     99.210  4.49145e+02 -2.12399e+03 -1.67485e+03  1.35014e-01
  2890     98.537  4.46099e+02 -2.12297e+03 -1.67687e+03  1.60065e-01
  2900     97.915  4.43283e+02 -2.12214e+03 -1.67885e+03  1.63199e-01
  2910     97.365  4.40795e+02 -2.12157e+03 -1.68077e+03  1.31681e-01
  2920     96.968  4.38996e+02 -2.12163e+03 -1.68264e+03  2.58010e-02
  2930     96.810  4.38281e+02 -2.12256e+03 -1.68428e+03 -1.84968e-01
  2940     96.921  4.38784e+02 -2.12477e+03 -1.68598e+03 -5.32516e-01
  2950     97.245  4.40251e+02 -2.12762e+03 -1.68737e+03 -9.69435e-01
  2960     97.666  4.42156e+02 -2.13073e+03 -1.68858e+03 -1.45091e+00
  2970     98.057  4.43926e+02 -2.13397e+03 -1.69004e+03 -1.94605e+00
  2980     98.342  4.45217e+02 -2.13628e+03 -1.69106e+03 -2.37466e+00
  2990     98.525  4.46045e+02 -2.13821e+03 -1.69216e+03 -2.76848e+00
  3000     98.687  4.46777e+02 -2.13980e+03 -1.69302e+03 -3.14001e+00
  3010     98.931  4.47883e+02 -2.14175e+03 -1.69387e+03 -3.54752e+00
  3020     99.314  4.49615e+02 -2.14383e+03 -1.69422e+03 -3.98065e+00
  3030     99.800  4.51815e+02 -2.14674e+03 -1.69493e+03 -4.47347e+00
  3040    100.283  4.54005e+02 -2.14970e+03 -1.69569e+03 -4.95366e+00
  3050    100.637  4.55607e+02 -2.15204e+03 -1.69643e+03 -5.35450e+00
  3060    100.772  4.56218e+02 -2.15335e+03 -1.69713e+03 -5.63116e+00
  3070    100.669  4.55753e+02 -2.15380e+03 -1.69805e+03 -5.78664e+00
  3080    100.369  4.54393e+02 -2.15308e+03 -1.69868e+03 -5.80557e+00
  3090     99.912  4.52325e+02 -2.15189e+03 -1.69957e+03 -5.73854e+00
  3100     99.306  4.49583e+02 -2.15030e+03 -1.70072e+03 -5.59113e+00
  3110     98.521  4.46026e+02 -2.14778e+03 -1.70175e+03 -5.32967e+00
  3120     97.519  4.41488e+02 -2.14405e+03 -1.70256e+03 -4.93775e+00
  3130     96.310  4.36019e+02 -2.13927e+03 -1.70325e+03 -4.43382e+00
  3140     95.043  4.30280e+02 -2.13381e+03 -1.70353e+03 -3.87297e+00
  3150     94.038  4.25732e+02 -2.12924e+03 -1.70351e+03 -3.40796e+00
  3160     93.581  4.23661e+02 -2.12729e+03 -1.70363e+03 -3.19144e+00
  3170     93.628  4.23877e+02 -2.12737e+03 -1.70349e+03 -3.18095e+00
  3180     93.895  4.25083e+02 -2.12805e+03 -1.70296e+03 -3.24139e+00
  3190     94.144  4.26210e+02 -2.12866e+03 -1.70245e+03 -3.28913e+00
  3200     94.310  4.26961e+02 -2.12856e+03 -1.70160e+03 -3.26805e+00
  3210     94.448  4.27589e+02 -2.12813e+03 -1.70054e+03 -3.20569e+00
  3220     94.636  4.28438e+02 -2.12758e+03 -1.69914e+03 -3.12448e+00
  3230     94.916  4.29708e+02 -2.12719e+03 -1.69748e+03 -3.04945e+00
  3240     95.342  4.31635e+02 -2.12709e+03 -1.69545e+03 -2.99660e+00
  3250     95.986  4.34548e+02 -2.12782e+03 -1.69327e+03 -3.00889e+00
  3260     96.863  4.38518e+02 -2.12961e+03 -1.69109e+03 -3.09865e+00
  3270     97.872  4.43088e+02 -2.13147e+03 -1.68838e+03 -3.18558e+00
  3280     98.842  4.47479e+02 -2.13313e+03 -1.68565e+03 -3.22387e+00
  3290     99.617  4.50990e+02 -2.13401e+03 -1.68302e+03 -3.15413e+00
  3300    100.123  4.53279e+02 -2.13350e+03 -1.68022e+03 -2.93017e+00
  3310    100.371  4.54403e+02 -2.13188e+03 -1.67748e+03 -2.57833e+00
  3320    100.447  4.54747e+02 -2.12911e+03 -1.67436e+03 -2.12131e+00
  3330    100.490  4.54943e+02 -2.12646e+03 -1.67152e+03 -1.67274e+00
  3340    100.678  4.55791e+02 -2.12430e+03 -1.66851e+03 -1.29254e+00
  3350    101.151  4.57933e+02 -2.12351e+03 -1.66558e+03 -1.06235e+00
  3360    101.910  4.61368e+02 -2.12429e+03 -1.66293e+03 -9.93807e-01
  3370    102.789  4.65351e+02 -2.12589e+03 -1.66054e+03 -1.01091e+00
  3380    103.571  4.68888e+02 -2.12684e+03 -1.65795e+03 -9.84469e-01
  3390    104.110  4.71329e+02 -2.12677e+03 -1.65544e+03 -8.64084e-01
  3400    104.382  4.72561e+02 -2.12586e+03 -1.65330e+03 -6.53594e-01
  3410    104.443  4.72839e+02 -2.12401e+03 -1.65117e+03 -3.58530e-01
  3420    104.373  4.72522e+02 -2.12191e+03 -1.64939e+03 -3.86701e-02
  3430    104.247  4.71949e+02 -2.11948e+03 -1.64753e+03  2.91600e-01
  3440    104.144  4.71484e+02 -2.11744e+03 -1.64595e+03  5.67155e-01
  3450    104.138  4.71458e+02 -2.11598e+03 -1.64452e+03  7.58011e-01
  3460    104.226  4.71854e+02 -2.11536e+03 -1.64351e+03  8.44584e-01
  3470    104.329  4.72322e+02 -2.11495e+03 -1.64263e+03  8.74976e-01
  3480    104.390  4.72595e+02 -2.11428e+03 -1.64168e+03  8.86275e-01
  3490    104.432  4.72789e+02 -2.11377e+03 -1.64098e+03  8.52350e-01
  3500    104.515  4.73163e+02 -2.11397e+03 -1.64081e+03  7.36833e-01
  3510    104.641  4.73734e+02 -2.11444e+03 -1.64070e+03  5.72678e-01
  3520    104.743  4.74196e+02 -2.11525e+03 -1.64106e+03  3.72728e-01
  3530    104.734  4.74153e+02 -2.11568e+03 -1.64153e+03  2.03451e-01
  3540    104.564  4.73383e+02 -2.11534e+03 -1.64196e+03  1.01831e-01
  3550    104.265  4.72033e+02 -2.11469e+03 -1.64266e+03  3.88051e-02
  3560    103.942  4.70570e+02 -2.11424e+03 -1.64367e+03 -3.07272e-02
  3570    103.673  4.69350e+02 -2.11437e+03 -1.64502e+03 -1.42814e-01
  3580    103.426  4.68235e+02 -2.11451e+03 -1.64628e+03 -2.60604e-01
  3590    103.126  4.66875e+02 -2.11485e+03 -1.64797e+03 -3.87676e-01
  3600    102.771  4.65270e+02 -2.11499e+03 -1.64972e+03 -5.05015e-01
  3610    102.456  4.63842e+02 -2.11553e+03 -1.65168e+03 -6.65636e-01
  3620    102.291  4.63094e+02 -2.11671e+03 -1.65362e+03 -9.00975e-01
  3630    102.302  4.63146e+02 -2.11882e+03 -1.65567e+03 -1.22820e+00
  3640    102.373  4.63467e+02 -2.12135e+03 -1.65789e+03 -1.59261e+00
  3650    102.295  4.63113e+02 -2.12290e+03 -1.65979e+03 -1.86511e+00
  3660    101.920  4.61414e+02 -2.12356e+03 -1.66215e+03 -2.01938e+00
  3670    101.275  4.58496e+02 -2.12291e+03 -1.66442e+03 -2.02561e+00
  3680    100.522  4.55085e+02 -2.12157e+03 -1.66648e+03 -1.94097e+00
  3690     99.823  4.51922e+02 -2.12059e+03 -1.66867e+03 -1.85447e+00
  3700     99.264  4.49391e+02 -2.12053e+03 -1.67114e+03 -1.81309e+00
  3710     98.852  4.47525e+02 -2.12092e+03 -1.67339e+03 -1.79127e+00
  3720     98.533  4.46083e+02 -2.12177e+03 -1.67569e+03 -1.78164e+00
  3730     98.220  4.44663e+02 -2.12257e+03 -1.67790e+03 -1.73977e+00
  3740     97.833  4.42912e+02 -2.12292e+03 -1.68001e+03 -1.63134e+00
  3750     97.349  4.40722e+02 -2.12253e+03 -1.68181e+03 -1.43505e+00
  3760     96.798  4.38228e+02 -2.12188e+03 -1.68365e+03 -1.18782e+00
  3770     96.233  4.35670e+02 -2.12071e+03 -1.68504e+03 -8.83886e-01
  3780     95.695  4.33234e+02 -2.12003e+03 -1.68680e+03 -5.92466e-01
  3790     95.190  4.30945e+02 -2.11886e+03 -1.68791e+03 -2.56274e-01
  3800     94.697  4.28715e+02 -2.11767e+03 -1.68895e+03  9.78119e-02
  3810     94.194  4.26438e+02 -2.11619e+03 -1.68975e+03  4.87754e-01
  3820     93.696  4.24182e+02 -2.11450e+03 -1.69032e+03  9.03121e-01
  3830     93.296  4.22374e+02 -2.11279e+03 -1.69041e+03  1.31212e+00
  3840     93.165  4.21778e+02 -2.11228e+03 -1.69050e+03  1.60719e+00
  3850     93.475  4.23184e+02 -2.11338e+03 -1.69020e+03  1.73186e+00
  3860     94.305  4.26939e+02 -2.11656e+03 -1.68962e+03  1.64488e+00
  3870     95.556  4.32603e+02 -2.12138e+03 -1.68878e+03  1.39009e+00
  3880     96.971  4.39011e+02 -2.12666e+03 -1.68765e+03  1.08797e+00
  3890     98.252  4.44807e+02 -2.13126e+03 -1.68645e+03  8.63790e-01
  3900     99.176  4.48993e+02 -2.13425e+03 -1.68526e+03  8.16775e-01
  3910     99.651  4.51145e+02 -2.13524e+03 -1.68409e+03  9.88860e-01
  3920     99.719  4.51452e+02 -2.13411e+03 -1.68266e+03  1.37733e+00
  3930     99.524  4.50567e+02 -2.13179e+03 -1.68123e+03  1.89655e+00
  3940     99.230  4.49237e+02 -2.12895e+03 -1.67972e+03  2.47108e+00
  3950     98.948  4.47960e+02 -2.12619e+03 -1.67823e+03  3.03659e+00
  3960     98.723  4.46943e+02 -2.12358e+03 -1.67663e+03  3.57376e+00
  3970     98.563  4.46218e+02 -2.12108e+03 -1.67486e+03  4.07792e+00
  3980     98.460  4.45750e+02 -2.11895e+03 -1.67320e+03  4.53227e+00
  3990     98.379  4.45384e+02 -2.11670e+03 -1.67132e+03  4.96958e+00
  4000     98.292  4.44989e+02 -2.11466e+03 -1.66967e+03  5.36958e+00
  4010     98.221  4.44670e+02 -2.11248e+03 -1.66781e+03  5.74614e+00
  4020     98.250  4.44800e+02 -2.11071e+03 -1.66591e+03  6.04787e+00
  4030     98.468  4.45788e+02 -2.10973e+03 -1.66394e+03  6.23349e+00
  4040     98.905  4.47767e+02 -2.10954e+03 -1.66177e+03  6.29523e+00
  4050     99.532  4.50602e+02 -2.11014e+03 -1.65954e+03  6.23647e+00
  4060    100.319  4.54167e+02 -2.11158e+03 -1.65741e+03  6.06052e+00
  4070    101.281  4.58523e+02 -2.11422e+03 -1.65570e+03  5.74660e+00
  4080    102.437  4.63758e+02 -2.11725e+03 -1.65349e+03  5.34749e+00
  4090    103.752  4.69711e+02 -2.12114e+03 -1.65143e+03  4.84869e+00
  4100    105.102  4.75819e+02 -2.12546e+03 -1.64964e+03  4.30741e+00
  4110    106.304  4.81261e+02 -2.12918e+03 -1.64792e+03  3.82454e+00
  4120    107.201  4.85325e+02 -2.13169e+03 -1.64637e+03  3.47225e+00
  4130    107.722  4.87680e+02 -2.13278e+03 -1.64510e+03  3.27973e+00
  4140    107.890  4.88443e+02 -2.13293e+03 -1.64449e+03  3.21561e+00
  4150    107.810  4.88079e+02 -2.13193e+03 -1.64386e+03  3.27494e+00
  4160    107.612  4.87183e+02 -2.13134e+03 -1.64416e+03  3.33790e+00
  4170    107.396  4.86204e+02 -2.13081e+03 -1.64461e+03  3.40550e+00
  4180    107.173  4.85195e+02 -2.13073e+03 -1.64553e+03  3.44936e+00
  4190    106.862  4.83786e+02 -2.13042e+03 -1.64663e+03  3.52179e+00
  4200    106.353  4.81483e+02 -2.12934e+03 -1.64786e+03  3.67172e+00
  4210    105.606  4.78103e+02 -2.12748e+03 -1.64937e+03  3.90461e+00
  4220    104.668  4.73854e+02 -2.12531e+03 -1.65146e+03  4.18198e+00
  4230    103.618  4.69102e+02 -2.12278e+03 -1.65368e+03  4.49106e+00
  4240    102.537  4.64206e+02 -2.12017e+03 -1.65596e+03  4.79649e+00
  4250    101.489  4.59463e+02 -2.11768e+03 -1.65821e+03  5.06906e+00
  4260    100.523  4.55090e+02 -2.11570e+03 -1.66061e+03  5.27105e+00
  4270     99.667  4.51217e+02 -2.11436e+03 -1.66314e+03  5.38363e+00
  4280     98.957  4.48000e+02 -2.11343e+03 -1.66543e+03  5.40987e+00
  4290     98.455  4.45728e+02 -2.11333e+03 -1.66760e+03  5.31159e+00
  4300     98.246  4.44782e+02 -2.11461e+03 -1.66983e+03  5.04084e+00
  4310     98.387  4.45422e+02 -2.11780e+03 -1.67238e+03  4.56142e+00
  4320     98.848  4.47509e+02 -2.12195e+03 -1.67444e+03  3.94458e+00
  4330     99.469  4.50318e+02 -2.12695e+03 -1.67663e+03  3.23293e+00
  4340     99.992  4.52688e+02 -2.13136e+03 -1.67867e+03  2.56699e+00
  4350    100.211  4.53676e+02 -2.13429e+03 -1.68062e+03  2.04387e+00
  4360    100.085  4.53110e+02 -2.13571e+03 -1.68260e+03  1.67870e+00
  4370     99.741  4.51552e+02 -2.13627e+03 -1.68472e+03  1.41540e+00
  4380     99.360  4.49825e+02 -2.13642e+03 -1.68660e+03  1.19920e+00
  4390     99.062  4.48477e+02 -2.13729e+03 -1.68882e+03  9.41283e-01
  4400     98.856  4.47542e+02 -2.13798e+03 -1.69044e+03  6.95179e-01
  4410     98.670  4.46699e+02 -2.13895e+03 -1.69225e+03  4.46391e-01
  4420     98.422  4.45577e+02 -2.13935e+03 -1.69377e+03  2.62906e-01
  4430     98.068  4.43976e+02 -2.13969e+03 -1.69571e+03  1.22718e-01
  4440     97.612  4.41913e+02 -2.13917e+03 -1.69725e+03  7.55865e-02
  4450     97.088  4.39541e+02 -2.13866e+03 -1.69912e+03  6.06330e-02
  4460     96.563  4.37161e+02 -2.13775e+03 -1.70059e+03  8.87968e-02
  4470     96.140  4.35246e+02 -2.13704e+03 -1.70179e+03  1.00993e-01
  4480     95.914  4.34224e+02 -2.13701e+03 -1.70278e+03  4.71938e-02
  4490     95.902  4.34172e+02 -2.13784e+03 -1.70367e+03 -9.31447e-02
  4500     96.035  4.34772e+02 -2.13925e+03 -1.70448e+03 -2.96255e-01
  4510     96.224  4.35627e+02 -2.14052e+03 -1.70489e+03 -5.08903e-01
  4520     96.439  4.36599e+02 -2.14166e+03 -1.70506e+03 -7.28986e-01
  4530     96.717  4.37861e+02 -2.14286e+03 -1.70500e+03 -9.75313e-01
  4540     97.125  4.39708e+02 -2.14479e+03 -1.70508e+03 -1.29536e+00
  4550     97.689  4.42261e+02 -2.14729e+03 -1.70503e+03 -1.67947e+00
  4560     98.362  4.45307e+02 -2.14994e+03 -1.70463e+03 -2.08612e+00
  4570     99.032  4.48340e+02 -2.15288e+03 -1.70454e+03 -2.49814e+00
  4580     99.569  4.50770e+02 -2.15502e+03 -1.70425e+03 -2.81862e+00
  4590     99.850  4.52041e+02 -2.15574e+03 -1.70370e+03 -2.98222e+00
  4600     99.782  4.51735e+02 -2.15505e+03 -1.70331e+03 -2.97004e+00
  4610     99.309  4.49595e+02 -2.15245e+03 -1.70285e+03 -2.74297e+00
  4620     98.447  4.45691e+02 -2.14845e+03 -1.70276e+03 -2.34167e+00
  4630     97.349  4.40719e+02 -2.14296e+03 -1.70224e+03 -1.79552e+00
  4640     96.334  4.36128e+02 -2.13769e+03 -1.70156e+03 -1.27286e+00
  4650     95.779  4.33615e+02 -2.13432e+03 -1.70071e+03 -9.44370e-01
  4660     95.893  4.34130e+02 -2.13404e+03 -1.69991e+03 -9.18826e-01
  4670     96.593  4.37297e+02 -2.13619e+03 -1.69889e+03 -1.14039e+00
  4680     97.601  4.41861e+02 -2.13935e+03 -1.69749e+03 -1.47059e+00
  4690     98.628  4.46512e+02 -2.14268e+03 -1.69616e+03 -1.79943e+00
  4700     99.464  4.50298e+02 -2.14499e+03 -1.69469e+03 -2.01242e+00
  4710     99.998  4.52713e+02 -2.14580e+03 -1.69309e+03 -2.05522e+00
  4720    100.210  4.53675e+02 -2.14516e+03 -1.69149e+03 -1.92764e+00
  4730    100.165  4.53471e+02 -2.14350e+03 -1.69003e+03 -1.66756e+00
  4740     99.970  4.52588e+02 -2.14103e+03 -1.68844e+03 -1.30832e+00
  4750     99.714  4.51427e+02 -2.13841e+03 -1.68699e+03 -9.08964e-01
  4760     99.417  4.50083e+02 -2.13544e+03 -1.68536e+03 -4.62631e-01
  4770     99.046  4.48403e+02 -2.13209e+03 -1.68369e+03  3.54033e-02
  4780     98.573  4.46261e+02 -2.12860e+03 -1.68234e+03  5.71126e-01
  4790     98.046  4.43876e+02 -2.12434e+03 -1.68046e+03  1.17224e+00
  4800     97.583  4.41781e+02 -2.12057e+03 -1.67879e+03  1.73914e+00
  4810     97.319  4.40586e+02 -2.11758e+03 -1.67700e+03  2.22984e+00
  4820     97.334  4.40652e+02 -2.11563e+03 -1.67498e+03  2.61349e+00
  4830     97.606  4.41884e+02 -2.11493e+03 -1.67304e+03  2.87942e+00
  4840     98.031  4.43808e+02 -2.11476e+03 -1.67095e+03  3.08611e+00
  4850     98.491  4.45893e+02 -2.11458e+03 -1.66869e+03  3.28280e+00
  4860     98.928  4.47867e+02 -2.11428e+03 -1.66641e+03  3.48315e+00
  4870     99.356  4.49806e+02 -2.11374e+03 -1.66393e+03  3.68463e+00
  4880     99.845  4.52021e+02 -2.11338e+03 -1.66136e+03  3.84228e+00
  4890    100.478  4.54886e+02 -2.11386e+03 -1.65897e+03  3.89755e+00
  4900    101.290  4.58561e+02 -2.11470e+03 -1.65614e+03  3.86864e+00
  4910    102.204  4.62701e+02 -2.11624e+03 -1.65354e+03  3.74765e+00
  4920    103.029  4.66438e+02 -2.11756e+03 -1.65112e+03  3.62330e+00
  4930    103.573  4.68896e+02 -2.11764e+03 -1.64874e+03  3.59015e+00
  4940    103.769  4.69784e+02 -2.11631e+03 -1.64653e+03  3.66917e+00
  4950    103.729  4.69605e+02 -2.11389e+03 -1.64429e+03  3.82229e+00
  4960    103.687  4.69413e+02 -2.11180e+03 -1.64238e+03  3.92222e+00
  4970    103.874  4.70261e+02 -2.11107e+03 -1.64081e+03  3.86515e+00
  4980    104.410  4.72686e+02 -2.11189e+03 -1.63920e+03  3.62089e+00
  4990    105.263  4.76548e+02 -2.11426e+03 -1.63772e+03  3.19802e+00
  5000    106.299  4.81239e+02 -2.11781e+03 -1.63657e+03  2.65020e+00
  5010    107.345  4.85975e+02 -2.12158e+03 -1.63561e+03  2.07254e+00
  5020    108.229  4.89978e+02 -2.12499e+03 -1.63501e+03  1.54009e+00
  5030    108.791  4.92522e+02 -2.12768e+03 -1.63516e+03  1.10891e+00
  5040    108.916  4.93089e+02 -2.12873e+03 -1.63565e+03  8.57913e-01
  5050    108.601  4.91663e+02 -2.12813e+03 -1.63647e+03  7.91226e-01
  5060    107.982  4.88861e+02 -2.12656e+03 -1.63770e+03  8.44363e-01
  5070    107.256  4.85571e+02 -2.12508e+03 -1.63951e+03  9.18939e-01
  5080    106.543  4.82346e+02 -2.12416e+03 -1.64182e+03  9.62893e-01
  5090    105.825  4.79095e+02 -2.12305e+03 -1.64396e+03  1.01775e+00
  5100    105.060  4.75629e+02 -2.12229e+03 -1.64666e+03  1.04761e+00
  5110    104.366  4.72490e+02 -2.12187e+03 -1.64938e+03  1.02503e+00
  5120    103.974  4.70714e+02 -2.12300e+03 -1.65229e+03  8.35772e-01
  5130    103.907  4.70411e+02 -2.12578e+03 -1.65537e+03  4.68954e-01
  5140    103.912  4.70432e+02 -2.12893e+03 -1.65850e+03  4.59505e-02
  5150    103.693  4.69440e+02 -2.13142e+03 -1.66198e+03 -3.14348e-01
  5160    103.056  4.66559e+02 -2.13229e+03 -1.66573e+03 -5.11146e-01
  5170    101.963  4.61609e+02 -2.13114e+03 -1.66953e+03 -5.04297e-01
  5180    100.518  4.55069e+02 -2.12832e+03 -1.67325e+03 -3.28480e-01
  5190     98.889  4.47692e+02 -2.12464e+03 -1.67695e+03 -6.10069e-02
  5200     97.211  4.40095e+02 -2.12048e+03 -1.68039e+03  2.46865e-01
  5210     95.578  4.32702e+02 -2.11665e+03 -1.68394e+03  5.22435e-01
  5220     94.077  4.25907e+02 -2.11292e+03 -1.68701e+03  7.54489e-01
  5230     92.837  4.20294e+02 -2.11015e+03 -1.68986e+03  8.62056e-01
  5240     92.039  4.16683e+02 -2.10902e+03 -1.69233e+03  7.70652e-01
  5250     91.864  4.15890e+02 -2.11069e+03 -1.69480e+03  3.80611e-01
  5260     92.379  4.18222e+02 -2.11467e+03 -1.69645e+03 -2.78862e-01
  5270     93.456  4.23097e+02 -2.12109e+03 -1.69800e+03 -1.17984e+00
  5280     94.788  4.29126e+02 -2.12849e+03 -1.69936e+03 -2.16495e+00
  5290     96.001  4.34620e+02 -2.13491e+03 -1.70029e+03 -3.03533e+00
  5300     96.782  4.38155e+02 -2.13937e+03 -1.70122e+03 -3.66297e+00
  5310     96.967  4.38989e+02 -2.14107e+03 -1.70208e+03 -3.96303e+00
  5320     96.555  4.37128e+02 -2.13965e+03 -1.70252e+03 -3.91442e+00
  5330     95.683  4.33180e+02 -2.13584e+03 -1.70266e+03 -3.59147e+00
  5340     94.572  4.28150e+02 -2.13149e+03 -1.70334e+03 -3.15879e+00
  5350     93.510  4.23341e+02 -2.12675e+03 -1.70341e+03 -2.68922e+00
  5360     92.786  4.20062e+02 -2.12312e+03 -1.70306e+03 -2.33920e+00
  5370     92.578  4.19122e+02 -2.12127e+03 -1.70215e+03 -2.19080e+00
  5380     92.890  4.20535e+02 -2.12200e+03 -1.70146e+03 -2.30014e+00
  5390     93.596  4.23730e+02 -2.12380e+03 -1.70007e+03 -2.55254e+00
  5400     94.523  4.27928e+02 -2.12646e+03 -1.69853e+03 -2.89696e+00
  5410     95.496  4.32330e+02 -2.12913e+03 -1.69680e+03 -3.23952e+00
  5420     96.358  4.36235e+02 -2.13104e+03 -1.69480e+03 -3.49530e+00
  5430     97.022  4.39241e+02 -2.13192e+03 -1.69267e+03 -3.62126e+00
  5440     97.496  4.41386e+02 -2.13224e+03 -1.69086e+03 -3.64076e+00
  5450     97.857  4.43023e+02 -2.13170e+03 -1.68867e+03 -3.54240e+00
  5460     98.182  4.44491e+02 -2.13069e+03 -1.68620e+03 -3.36270e+00
  5470     98.487  4.45872e+02 -2.12949e+03 -1.68362e+03 -3.12215e+00
  5480     98.745  4.47039e+02 -2.12800e+03 -1.68096e+03 -2.81364e+00
  5490     98.908  4.47777e+02 -2.12593e+03 -1.67815e+03 -2.41844e+00
  5500     98.940  4.47924e+02 -2.12329e+03 -1.67536e+03 -1.93948e+00
  5510     98.851  4.47519e+02 -2.11980e+03 -1.67229e+03 -1.37114e+00
  5520     98.717  4.46916e+02 -2.11625e+03 -1.66934e+03 -7.85325e-01
  5530     98.679  4.46741e+02 -2.11321e+03 -1.66647e+03 -2.50370e-01
  5540     98.862  4.47572e+02 -2.11087e+03 -1.66330e+03  1.93294e-01
  5550     99.309  4.49595e+02 -2.10942e+03 -1.65982e+03  5.22494e-01
  5560     99.957  4.52528e+02 -2.10922e+03 -1.65669e+03  7.21762e-01
  5570    100.699  4.55886e+02 -2.10935e+03 -1.65346e+03  8.67750e-01
  5580    101.436  4.59222e+02 -2.10935e+03 -1.65013e+03  1.00615e+00
  5590    102.103  4.62244e+02 -2.10944e+03 -1.64720e+03  1.13797e+00
  5600    102.678  4.64846e+02 -2.10923e+03 -1.64438e+03  1.29252e+00
  5610    103.177  4.67106e+02 -2.10844e+03 -1.64133e+03  1.48365e+00
  5620    103.637  4.69186e+02 -2.10770e+03 -1.63851e+03  1.66474e+00
  5630    104.093  4.71251e+02 -2.10677e+03 -1.63552e+03  1.84159e+00
  5640    104.570  4.73410e+02 -2.10648e+03 -1.63307e+03  1.95785e+00
  5650    105.061  4.75636e+02 -2.10644e+03 -1.63081e+03  2.03745e+00
  5660    105.510  4.77667e+02 -2.10645e+03 -1.62878e+03  2.10169e+00
  5670    105.823  4.79084e+02 -2.10608e+03 -1.62699e+03  2.19291e+00
  5680    105.906  4.79458e+02 -2.10505e+03 -1.62559e+03  2.34276e+00
  5690    105.695  4.78507e+02 -2.10304e+03 -1.62453e+03  2.57931e+00
  5700    105.208  4.76299e+02 -2.09978e+03 -1.62348e+03  2.91198e+00
  5710    104.571  4.73417e+02 -2.09601e+03 -1.62260e+03  3.26956e+00
  5720    104.021  4.70928e+02 -2.09310e+03 -1.62217e+03  3.52752e+00
  5730    103.795  4.69905e+02 -2.09169e+03 -1.62179e+03  3.60534e+00
  5740    103.973  4.70711e+02 -2.09254e+03 -1.62182e+03  3.44724e+00
  5750    104.417  4.72720e+02 -2.09453e+03 -1.62181e+03  3.14625e+00
  5760    104.897  4.74890e+02 -2.09690e+03 -1.62201e+03  2.79168e+00
  5770    105.241  4.76450e+02 -2.09912e+03 -1.62267e+03  2.45181e+00
  5780    105.401  4.77174e+02 -2.10060e+03 -1.62343e+03  2.17683e+00
  5790    105.419  4.77254e+02 -2.10180e+03 -1.62454e+03  1.93884e+00
  5800    105.351  4.76949e+02 -2.10284e+03 -1.62589e+03  1.72307e+00
  5810    105.210  4.76309e+02 -2.10366e+03 -1.62735e+03  1.53297e+00
  5820    104.956  4.75158e+02 -2.10412e+03 -1.62896e+03  1.37995e+00
  5830    104.562  4.73375e+02 -2.10428e+03 -1.63091e+03  1.25982e+00
  5840    104.089  4.71233e+02 -2.10416e+03 -1.63293e+03  1.15376e+00
  5850    103.695  4.69452e+02 -2.10474e+03 -1.63529e+03  9.69161e-01
  5860    103.569  4.68880e+02 -2.10642e+03 -1.63754e+03  6.45931e-01
  5870    103.836  4.70087e+02 -2.11022e+03 -1.64013e+03  9.95039e-02
  5880    104.487  4.73034e+02 -2.11573e+03 -1.64270e+03 -6.38854e-01
  5890    105.347  4.76931e+02 -2.12256e+03 -1.64563e+03 -1.50694e+00
  5900    106.114  4.80401e+02 -2.12947e+03 -1.64907e+03 -2.36339e+00
  5910    106.460  4.81970e+02 -2.13478e+03 -1.65281e+03 -3.03707e+00
  5920    106.153  4.80579e+02 -2.13753e+03 -1.65695e+03 -3.41671e+00
  5930    105.095  4.75789e+02 -2.13706e+03 -1.66127e+03 -3.43756e+00
  5940    103.343  4.67856e+02 -2.13347e+03 -1.66561e+03 -3.11415e+00
  5950    101.119  4.57787e+02 -2.12791e+03 -1.67012e+03 -2.56233e+00
  5960     98.794  4.47262e+02 -2.12179e+03 -1.67453e+03 -1.94277e+00
  5970     96.761  4.38057e+02 -2.11668e+03 -1.67862e+03 -1.42982e+00
  5980     95.252  4.31226e+02 -2.11375e+03 -1.68252e+03 -1.14722e+00
  5990     94.265  4.26757e+02 -2.11294e+03 -1.68618e+03 -1.10213e+00
  6000     93.664  4.24038e+02 -2.11366e+03 -1.68962e+03 -1.23987e+00
  6010     93.321  4.22485e+02 -2.11526e+03 -1.69277e+03 -1.49774e+00
  6020     93.175  4.21826e+02 -2.11736e+03 -1.69553e+03 -1.83751e+00
  6030     93.227  4.22061e+02 -2.12024e+03 -1.69818e+03 -2.26898e+00
  6040     93.495  4.23275e+02 -2.12390e+03 -1.70062e+03 -2.78650e+00
  6050     93.962  4.25388e+02 -2.12820e+03 -1.70282e+03 -3.37015e+00
  6060     94.528  4.27952e+02 -2.13285e+03 -1.70490e+03 -3.97401e+00
  6070     95.009  4.30128e+02 -2.13668e+03 -1.70656e+03 -4.48614e+00
  6080     95.187  4.30935e+02 -2.13879e+03 -1.70786e+03 -4.80650e+00
  6090     94.905  4.29657e+02 -2.13864e+03 -1.70898e+03 -4.87183e+00
  6100     94.151  4.26241e+02 -2.13646e+03 -1.71022e+03 -4.69468e+00
  6110     93.086  4.21423e+02 -2.13232e+03 -1.71090e+03 -4.31056e+00
  6120     91.984  4.16434e+02 -2.12768e+03 -1.71125e+03 -3.86321e+00
  6130     91.087  4.12372e+02 -2.12374e+03 -1.71136e+03 -3.47556e+00
  6140     90.492  4.09680e+02 -2.12085e+03 -1.71117e+03 -3.19864e+00
  6150     90.176  4.08248e+02 -2.11877e+03 -1.71052e+03 -3.02358e+00
  6160     90.109  4.07942e+02 -2.11728e+03 -1.70934e+03 -2.93749e+00
  6170     90.331  4.08947e+02 -2.11697e+03 -1.70802e+03 -2.98428e+00
  6180     90.923  4.11629e+02 -2.11761e+03 -1.70598e+03 -3.15878e+00
  6190     91.918  4.16132e+02 -2.11974e+03 -1.70361e+03 -3.49114e+00
  6200     93.243  4.22131e+02 -2.12319e+03 -1.70106e+03 -3.95027e+00
  6210     94.758  4.28990e+02 -2.12711e+03 -1.69812e+03 -4.44946e+00
  6220     96.317  4.36047e+02 -2.13069e+03 -1.69464e+03 -4.90542e+00
  6230     97.815  4.42828e+02 -2.13387e+03 -1.69104e+03 -5.28890e+00
  6240     99.190  4.49056e+02 -2.13622e+03 -1.68717e+03 -5.55746e+00
  6250    100.420  4.54626e+02 -2.13829e+03 -1.68366e+03 -5.73783e+00
  6260    101.508  4.59548e+02 -2.13926e+03 -1.67971e+03 -5.78020e+00
  6270    102.451  4.63817e+02 -2.13978e+03 -1.67596e+03 -5.72653e+00
  6280    103.227  4.67330e+02 -2.13960e+03 -1.67227e+03 -5.56317e+00
  6290    103.806  4.69952e+02 -2.13862e+03 -1.66867e+03 -5.28661e+00
  6300    104.167  4.71589e+02 -2.13666e+03 -1.66508e+03 -4.89260e+00
  6310    104.298  4.72181e+02 -2.13395e+03 -1.66177e+03 -4.40251e+00
  6320    104.215  4.71804e+02 -2.13060e+03 -1.65880e+03 -3.83984e+00
  6330    104.006  4.70860e+02 -2.12671e+03 -1.65585e+03 -3.23575e+00
  6340    103.831  4.70064e+02 -2.12327e+03 -1.65321e+03 -2.68723e+00
  6350    103.844  4.70126e+02 -2.12117e+03 -1.65104e+03 -2.27896e+00
  6360    104.102  4.71291e+02 -2.11961e+03 -1.64831e+03 -1.97453e+00
  6370    104.548  4.73311e+02 -2.11956e+03 -1.64625e+03 -1.82733e+00
  6380    105.100  4.75810e+02 -2.12024e+03 -1.64443e+03 -1.77330e+00
  6390    105.687  4.78469e+02 -2.12142e+03 -1.64295e+03 -1.78336e+00
  6400    106.219  4.80875e+02 -2.12263e+03 -1.64176e+03 -1.80717e+00
  6410    106.559  4.82415e+02 -2.12320e+03 -1.64079e+03 -1.77555e+00
  6420    106.577  4.82498e+02 -2.12251e+03 -1.64001e+03 -1.62268e+00
  6430    106.238  4.80964e+02 -2.12043e+03 -1.63946e+03 -1.33069e+00
  6440    105.616  4.78148e+02 -2.11714e+03 -1.63899e+03 -9.20869e-01
  6450    104.819  4.74541e+02 -2.11355e+03 -1.63900e+03 -4.68999e-01
  6460    103.963  4.70663e+02 -2.10972e+03 -1.63906e+03 -7.26416e-03
  6470    103.212  4.67264e+02 -2.10700e+03 -1.63974e+03  3.44437e-01
  6480    102.756  4.65199e+02 -2.10551e+03 -1.64032e+03  5.36193e-01
  6490    102.708  4.64980e+02 -2.10622e+03 -1.64124e+03  4.83615e-01
  6500    103.024  4.66414e+02 -2.10842e+03 -1.64201e+03  2.33759e-01
  6510    103.494  4.68543e+02 -2.11140e+03 -1.64286e+03 -1.30884e-01
  6520    103.823  4.70031e+02 -2.11385e+03 -1.64381e+03 -4.73444e-01
  6530    103.788  4.69869e+02 -2.11485e+03 -1.64498e+03 -6.93238e-01
  6540    103.336  4.67825e+02 -2.11428e+03 -1.64646e+03 -7.64085e-01
  6550    102.566  4.64340e+02 -2.11256e+03 -1.64822e+03 -7.21544e-01
  6560    101.673  4.60295e+02 -2.11003e+03 -1.64974e+03 -6.15466e-01
  6570    100.868  4.56651e+02 -2.10820e+03 -1.65155e+03 -5.68302e-01
  6580    100.238  4.53802e+02 -2.10696e+03 -1.65315e+03 -5.82757e-01
  6590     99.682  4.51281e+02 -2.10617e+03 -1.65489e+03 -6.32998e-01
  6600     99.053  4.48434e+02 -2.10477e+03 -1.65634e+03 -6.28888e-01
  6610     98.349  4.45247e+02 -2.10336e+03 -1.65811e+03 -6.06637e-01
  6620     97.717  4.42388e+02 -2.10206e+03 -1.65967e+03 -6.01761e-01
  6630     97.339  4.40675e+02 -2.10169e+03 -1.66102e+03 -6.98841e-01
  6640     97.299  4.40494e+02 -2.10304e+03 -1.66254e+03 -9.65796e-01
  6650     97.548  4.41623e+02 -2.10535e+03 -1.66373e+03 -1.35393e+00
  6660     97.952  4.43448e+02 -2.10835e+03 -1.66491e+03 -1.82441e+00
  6670     98.361  4.45302e+02 -2.11120e+03 -1.66589e+03 -2.29823e+00
  6680     98.691  4.46798e+02 -2.11395e+03 -1.66715e+03 -2.76025e+00
  6690     98.957  4.48001e+02 -2.11620e+03 -1.66820e+03 -3.18101e+00
  6700     99.248  4.49317e+02 -2.11873e+03 -1.66941e+03 -3.61430e+00
  6710     99.643  4.51107e+02 -2.12143e+03 -1.67032e+03 -4.05989e+00
  6720    100.109  4.53216e+02 -2.12435e+03 -1.67114e+03 -4.50901e+00
  6730    100.484  4.54914e+02 -2.12699e+03 -1.67208e+03 -4.89890e+00
  6740    100.565  4.55281e+02 -2.12820e+03 -1.67291e+03 -5.12096e+00
  6750    100.211  4.53680e+02 -2.12733e+03 -1.67365e+03 -5.11006e+00
  6760     99.406  4.50033e+02 -2.12456e+03 -1.67453e+03 -4.87426e+00
  6770     98.261  4.44849e+02 -2.12015e+03 -1.67530e+03 -4.45484e+00
  6780     96.991  4.39101e+02 -2.11514e+03 -1.67604e+03 -3.96241e+00
  6790     95.865  4.34003e+02 -2.11046e+03 -1.67646e+03 -3.51135e+00
  6800     95.127  4.30659e+02 -2.10743e+03 -1.67677e+03 -3.23855e+00
  6810     94.921  4.29730e+02 -2.10680e+03 -1.67707e+03 -3.22748e+00
  6820     95.253  4.31231e+02 -2.10830e+03 -1.67707e+03 -3.47003e+00
  6830     96.000  4.34612e+02 -2.11155e+03 -1.67694e+03 -3.92574e+00
  6840     96.983  4.39064e+02 -2.11564e+03 -1.67657e+03 -4.50686e+00
  6850     98.038  4.43838e+02 -2.11950e+03 -1.67566e+03 -5.11503e+00
  6860     99.043  4.48389e+02 -2.12396e+03 -1.67557e+03 -5.77118e+00
  6870     99.922  4.52369e+02 -2.12740e+03 -1.67503e+03 -6.35207e+00
  6880    100.623  4.55541e+02 -2.12991e+03 -1.67437e+03 -6.84651e+00
  6890    101.108  4.57740e+02 -2.13132e+03 -1.67358e+03 -7.22956e+00
  6900    101.354  4.58853e+02 -2.13186e+03 -1.67300e+03 -7.50744e+00
  6910    101.349  4.58830e+02 -2.13133e+03 -1.67250e+03 -7.66390e+00
  6920    101.116  4.57776e+02 -2.12984e+03 -1.67206e+03 -7.70777e+00
  6930    100.731  4.56031e+02 -2.12750e+03 -1.67147e+03 -7.65957e+00
  6940    100.307  4.54112e+02 -2.12508e+03 -1.67097e+03 -7.58497e+00
  6950     99.966  4.52569e+02 -2.12305e+03 -1.67048e+03 -7.53230e+00
  6960     99.803  4.51830e+02 -2.12173e+03 -1.66990e+03 -7.53547e+00
  6970     99.860  4.52090e+02 -2.12171e+03 -1.66962e+03 -7.63148e+00
  6980    100.104  4.53194e+02 -2.12256e+03 -1.66937e+03 -7.78273e+00
  6990    100.414  4.54596e+02 -2.12339e+03 -1.66879e+03 -7.90716e+00
  7000    100.630  4.55576e+02 -2.12392e+03 -1.66835e+03 -7.95653e+00
  7010    100.662  4.55718e+02 -2.12360e+03 -1.66789e+03 -7.87639e+00
  7020    100.533  4.55136e+02 -2.12267e+03 -1.66753e+03 -7.68174e+00
  7030    100.314  4.54145e+02 -2.12134e+03 -1.66720e+03 -7.39667e+00
  7040    100.017  4.52801e+02 -2.11976e+03 -1.66696e+03 -7.03222e+00
  7050     99.589  4.50862e+02 -2.11719e+03 -1.66633e+03 -6.54070e+00
  7060     98.987  4.48135e+02 -2.11396e+03 -1.66582e+03 -5.94159e+00
  7070     98.233  4.44721e+02 -2.11027e+03 -1.66555e+03 -5.26286e+00
  7080     97.428  4.41078e+02 -2.10632e+03 -1.66524e+03 -4.54753e+00
  7090     96.750  4.38011e+02 -2.10258e+03 -1.66457e+03 -3.87078e+00
  7100     96.419  4.36511e+02 -2.10034e+03 -1.66383e+03 -3.35968e+00
  7110     96.616  4.37402e+02 -2.10040e+03 -1.66300e+03 -3.10279e+00
  7120     97.390  4.40905e+02 -2.10285e+03 -1.66194e+03 -3.11441e+00
  7130     98.617  4.46462e+02 -2.10718e+03 -1.66071e+03 -3.33926e+00
  7140    100.040  4.52905e+02 -2.11193e+03 -1.65902e+03 -3.63653e+00
  7150    101.374  4.58942e+02 -2.11659e+03 -1.65765e+03 -3.91558e+00
  7160    102.389  4.63540e+02 -2.11982e+03 -1.65628e+03 -4.04430e+00
  7170    102.953  4.66093e+02 -2.12112e+03 -1.65502e+03 -3.96203e+00
  7180    103.023  4.66410e+02 -2.12033e+03 -1.65392e+03 -3.64908e+00
  7190    102.645  4.64698e+02 -2.11809e+03 -1.65339e+03 -3.15517e+00
  7200    101.959  4.61589e+02 -2.11429e+03 -1.65270e+03 -2.50479e+00
  7210    101.182  4.58075e+02 -2.11014e+03 -1.65206e+03 -1.81839e+00
  7220    100.552  4.55224e+02 -2.10652e+03 -1.65130e+03 -1.20098e+00
  7230    100.243  4.53823e+02 -2.10459e+03 -1.65076e+03 -7.60069e-01
  7240    100.317  4.54158e+02 -2.10429e+03 -1.65013e+03 -5.10714e-01
  7250    100.739  4.56070e+02 -2.10555e+03 -1.64948e+03 -4.41811e-01
  7260    101.401  4.59067e+02 -2.10775e+03 -1.64869e+03 -4.94857e-01
  7270    102.159  4.62495e+02 -2.11049e+03 -1.64799e+03 -6.12014e-01
  7280    102.866  4.65699e+02 -2.11327e+03 -1.64757e+03 -7.30924e-01
  7290    103.401  4.68121e+02 -2.11532e+03 -1.64720e+03 -7.73765e-01
  7300    103.658  4.69282e+02 -2.11634e+03 -1.64706e+03 -6.98218e-01
  7310    103.555  4.68815e+02 -2.11563e+03 -1.64682e+03 -4.47256e-01
  7320    103.083  4.66678e+02 -2.11348e+03 -1.64680e+03 -3.95244e-02
  7330    102.342  4.63326e+02 -2.11041e+03 -1.64708e+03  4.67831e-01
  7340    101.547  4.59727e+02 -2.10735e+03 -1.64762e+03  9.72008e-01
  7350    100.970  4.57113e+02 -2.10518e+03 -1.64807e+03  1.36443e+00
  7360    100.827  4.56466e+02 -2.10506e+03 -1.64860e+03  1.53142e+00
  7370    101.160  4.57972e+02 -2.10709e+03 -1.64912e+03  1.45613e+00
  7380    101.813  4.60930e+02 -2.11059e+03 -1.64966e+03  1.20484e+00
  7390    102.542  4.64229e+02 -2.11469e+03 -1.65046e+03  8.72733e-01
  7400    103.147  4.66970e+02 -2.11825e+03 -1.65128e+03  5.67706e-01
  7410    103.547  4.68781e+02 -2.12096e+03 -1.65218e+03  3.26859e-01
  7420    103.760  4.69744e+02 -2.12302e+03 -1.65327e+03  1.38936e-01
  7430    103.843  4.70119e+02 -2.12441e+03 -1.65429e+03 -4.19753e-03
  7440    103.834  4.70078e+02 -2.12591e+03 -1.65583e+03 -1.53554e-01
  7450    103.728  4.69600e+02 -2.12711e+03 -1.65751e+03 -2.81282e-01
  7460    103.488  4.68515e+02 -2.12796e+03 -1.65945e+03 -3.75541e-01
  7470    103.056  4.66560e+02 -2.12812e+03 -1.66156e+03 -4.02155e-01
  7480    102.388  4.63534e+02 -2.12720e+03 -1.66366e+03 -3.27878e-01
  7490    101.517  4.59592e+02 -2.12561e+03 -1.66601e+03 -1.83109e-01
  7500    100.599  4.55436e+02 -2.12389e+03 -1.66845e+03 -2.51112e-02
  7510     99.828  4.51942e+02 -2.12267e+03 -1.67073e+03  7.67460e-02
  7520     99.289  4.49503e+02 -2.12241e+03 -1.67290e+03  8.07236e-02
  7530     98.905  4.47766e+02 -2.12280e+03 -1.67503e+03  1.81107e-02
  7540     98.499  4.45926e+02 -2.12317e+03 -1.67724e+03 -3.92921e-02
  7550     97.928  4.43340e+02 -2.12239e+03 -1.67905e+03  3.79900e-03
  7560     97.164  4.39882e+02 -2.12073e+03 -1.68085e+03  1.39440e-01
  7570     96.290  4.35928e+02 -2.11832e+03 -1.68240e+03  3.46443e-01
  7580     95.450  4.32122e+02 -2.11595e+03 -1.68383e+03  5.53492e-01
  7590     94.773  4.29057e+02 -2.11442e+03 -1.68537e+03  6.84695e-01
  7600     94.368  4.27225e+02 -2.11340e+03 -1.68617e+03  7.38380e-01
  7610     94.337  4.27087e+02 -2.11434e+03 -1.68725e+03  6.04557e-01
  7620     94.723  4.28831e+02 -2.11678e+03 -1.68795e+03  3.04440e-01
  7630     95.435  4.32056e+02 -2.12042e+03 -1.68836e+03 -1.29566e-01
  7640     96.299  4.35967e+02 -2.12442e+03 -1.68845e+03 -6.17080e-01
  7650     97.165  4.39889e+02 -2.12847e+03 -1.68858e+03 -1.11123e+00
  7660     97.972  4.43542e+02 -2.13204e+03 -1.68850e+03 -1.56606e+00
  7670     98.721  4.46933e+02 -2.13528e+03 -1.68834e+03 -1.98595e+00
  7680     99.409  4.50049e+02 -2.13791e+03 -1.68786e+03 -2.34903e+00
  7690     99.970  4.52584e+02 -2.13985e+03 -1.68727e+03 -2.63430e+00
  7700    100.273  4.53957e+02 -2.14081e+03 -1.68685e+03 -2.79885e+00
  7710    100.190  4.53584e+02 -2.14012e+03 -1.68654e+03 -2.78060e+00
  7720     99.684  4.51291e+02 -2.13746e+03 -1.68617e+03 -2.55427e+00
  7730     98.841  4.47477e+02 -2.13378e+03 -1.68630e+03 -2.19744e+00
  7740     97.835  4.42921e+02 -2.12874e+03 -1.68582e+03 -1.72649e+00
  7750     96.899  4.38682e+02 -2.12401e+03 -1.68532e+03 -1.29395e+00
  7760     96.334  4.36126e+02 -2.12114e+03 -1.68501e+03 -1.05622e+00
  7770     96.426  4.36542e+02 -2.12052e+03 -1.68398e+03 -1.08963e+00
  7780     97.293  4.40469e+02 -2.12398e+03 -1.68351e+03 -1.52519e+00
  7790     98.804  4.47306e+02 -2.13007e+03 -1.68277e+03 -2.24475e+00
  7800    100.592  4.55402e+02 -2.13721e+03 -1.68181e+03 -3.07870e+00
  7810    102.197  4.62667e+02 -2.14316e+03 -1.68049e+03 -3.80214e+00
  7820    103.251  4.67441e+02 -2.14690e+03 -1.67946e+03 -4.28331e+00
  7830    103.645  4.69222e+02 -2.14786e+03 -1.67864e+03 -4.46582e+00
  7840    103.561  4.68845e+02 -2.14685e+03 -1.67801e+03 -4.43116e+00
  7850    103.345  4.67868e+02 -2.14518e+03 -1.67732e+03 -4.32151e+00
  7860    103.232  4.67356e+02 -2.14430e+03 -1.67694e+03 -4.27091e+00
  7870    103.193  4.67176e+02 -2.14391e+03 -1.67673e+03 -4.26760e+00
  7880    103.055  4.66551e+02 -2.14314e+03 -1.67659e+03 -4.23804e+00
  7890    102.713  4.65007e+02 -2.14181e+03 -1.67680e+03 -4.16089e+00
  7900    102.240  4.62862e+02 -2.13988e+03 -1.67702e+03 -4.04901e+00
  7910    101.825  4.60983e+02 -2.13825e+03 -1.67727e+03 -3.98979e+00
  7920    101.620  4.60055e+02 -2.13756e+03 -1.67750e+03 -4.04664e+00
  7930    101.618  4.60048e+02 -2.13821e+03 -1.67817e+03 -4.24392e+00
  7940    101.675  4.60305e+02 -2.13895e+03 -1.67864e+03 -4.47694e+00
  7950    101.626  4.60083e+02 -2.13929e+03 -1.67921e+03 -4.68679e+00
  7960    101.405  4.59082e+02 -2.13905e+03 -1.67996e+03 -4.84479e+00
  7970    101.063  4.57536e+02 -2.13848e+03 -1.68094e+03 -4.96904e+00
  7980    100.693  4.55858e+02 -2.13797e+03 -1.68212e+03 -5.09334e+00
  7990    100.350  4.54309e+02 -2.13727e+03 -1.68296e+03 -5.20519e+00
  8000    100.045  4.52928e+02 -2.13680e+03 -1.68387e+03 -5.32798e+00
  8010     99.747  4.51578e+02 -2.13623e+03 -1.68466e+03 -5.43022e+00
  8020     99.393  4.49973e+02 -2.13538e+03 -1.68540e+03 -5.48344e+00
  8030     98.923  4.47846e+02 -2.13394e+03 -1.68610e+03 -5.45687e+00
  8040     98.358  4.45289e+02 -2.13184e+03 -1.68655e+03 -5.34352e+00
  8050     97.791  4.42724e+02 -2.12963e+03 -1.68691e+03 -5.18856e+00
  8060     97.269  4.40358e+02 -2.12794e+03 -1.68758e+03 -5.03729e+00
  8070     96.711  4.37832e+02 -2.12558e+03 -1.68775e+03 -4.80818e+00
  8080     96.013  4.34671e+02 -2.12233e+03 -1.68766e+03 -4.47874e+00
  8090     95.199  4.30985e+02 -2.11867e+03 -1.68768e+03 -4.09199e+00
  8100     94.450  4.27598e+02 -2.11488e+03 -1.68729e+03 -3.70767e+00
  8110     94.007  4.25592e+02 -2.11247e+03 -1.68688e+03 -3.46633e+00
  8120     94.052  4.25792e+02 -2.11178e+03 -1.68599e+03 -3.42876e+00
  8130     94.647  4.28486e+02 -2.11351e+03 -1.68502e+03 -3.65093e+00
  8140     95.739  4.33433e+02 -2.11709e+03 -1.68366e+03 -4.08639e+00
  8150     97.195  4.40023e+02 -2.12213e+03 -1.68210e+03 -4.68060e+00
  8160     98.843  4.47483e+02 -2.12762e+03 -1.68014e+03 -5.33188e+00
  8170    100.516  4.55058e+02 -2.13388e+03 -1.67882e+03 -6.01690e+00
  8180    102.078  4.62131e+02 -2.13948e+03 -1.67735e+03 -6.61414e+00
  8190    103.419  4.68203e+02 -2.14410e+03 -1.67590e+03 -7.07493e+00
  8200    104.430  4.72778e+02 -2.14715e+03 -1.67437e+03 -7.33685e+00
  8210    105.000  4.75358e+02 -2.14886e+03 -1.67350e+03 -7.39510e+00
  8220    105.075  4.75700e+02 -2.14817e+03 -1.67247e+03 -7.18061e+00
  8230    104.732  4.74147e+02 -2.14573e+03 -1.67158e+03 -6.75181e+00
  8240    104.174  4.71618e+02 -2.14263e+03 -1.67101e+03 -6.21746e+00
  8250    103.610  4.69067e+02 -2.13977e+03 -1.67070e+03 -5.67462e+00
  8260    103.140  4.66936e+02 -2.13739e+03 -1.67045e+03 -5.16075e+00
  8270    102.737  4.65115e+02 -2.13550e+03 -1.67039e+03 -4.67574e+00
  8280    102.335  4.63293e+02 -2.13356e+03 -1.67027e+03 -4.17503e+00
  8290    101.873  4.61202e+02 -2.13153e+03 -1.67033e+03 -3.64199e+00
  8300    101.272  4.58481e+02 -2.12912e+03 -1.67064e+03 -3.04026e+00
  8310    100.409  4.54574e+02 -2.12545e+03 -1.67087e+03 -2.29435e+00
  8320     99.151  4.48879e+02 -2.12022e+03 -1.67134e+03 -1.36669e+00
  8330     97.450  4.41179e+02 -2.11277e+03 -1.67160e+03 -2.19461e-01
  8340     95.444  4.32095e+02 -2.10366e+03 -1.67157e+03  1.07490e+00
  8350     93.462  4.23123e+02 -2.09445e+03 -1.67132e+03  2.34554e+00
  8360     91.919  4.16139e+02 -2.08714e+03 -1.67100e+03  3.37723e+00
  8370     91.156  4.12685e+02 -2.08321e+03 -1.67053e+03  4.00258e+00
  8380     91.344  4.13536e+02 -2.08301e+03 -1.66947e+03  4.15833e+00
  8390     92.448  4.18534e+02 -2.08638e+03 -1.66785e+03  3.85533e+00
  8400     94.229  4.26597e+02 -2.09258e+03 -1.66598e+03  3.18636e+00
  8410     96.350  4.36199e+02 -2.10023e+03 -1.66403e+03  2.30622e+00
  8420     98.543  4.46128e+02 -2.10789e+03 -1.66176e+03  1.36817e+00
  8430    100.666  4.55738e+02 -2.11517e+03 -1.65944e+03  4.43562e-01
  8440    102.623  4.64598e+02 -2.12158e+03 -1.65699e+03 -4.01647e-01
  8450    104.304  4.72210e+02 -2.12712e+03 -1.65491e+03 -1.13452e+00
  8460    105.604  4.78091e+02 -2.13086e+03 -1.65276e+03 -1.67168e+00
  8470    106.486  4.82088e+02 -2.13292e+03 -1.65084e+03 -2.01107e+00
  8480    107.020  4.84504e+02 -2.13351e+03 -1.64900e+03 -2.17197e+00
  8490    107.335  4.85930e+02 -2.13371e+03 -1.64778e+03 -2.24160e+00
  8500    107.532  4.86820e+02 -2.13360e+03 -1.64678e+03 -2.24135e+00
  8510    107.608  4.87167e+02 -2.13315e+03 -1.64599e+03 -2.17174e+00
  8520    107.481  4.86593e+02 -2.13245e+03 -1.64586e+03 -2.03093e+00
  8530    107.109  4.84905e+02 -2.13065e+03 -1.64575e+03 -1.76869e+00
  8540    106.580  4.82513e+02 -2.12879e+03 -1.64627e+03 -1.47237e+00
  8550    106.082  4.80258e+02 -2.12741e+03 -1.64715e+03 -1.21408e+00
  8560    105.755  4.78778e+02 -2.12717e+03 -1.64840e+03 -1.06167e+00
  8570    105.563  4.77907e+02 -2.12773e+03 -1.64983e+03 -9.89380e-01
  8580    105.282  4.76635e+02 -2.12779e+03 -1.65116e+03 -8.78339e-01
  8590    104.651  4.73781e+02 -2.12715e+03 -1.65337e+03 -6.68340e-01
  8600    103.560  4.68840e+02 -2.12399e+03 -1.65515e+03 -2.24607e-01
  8610    102.117  4.62305e+02 -2.11978e+03 -1.65747e+03  3.50701e-01
  8620    100.561  4.55260e+02 -2.11489e+03 -1.65963e+03  9.95404e-01
  8630     99.121  4.48743e+02 -2.11037e+03 -1.66162e+03  1.60607e+00
  8640     97.929  4.43347e+02 -2.10703e+03 -1.66368e+03  2.10384e+00
  8650     97.011  4.39191e+02 -2.10459e+03 -1.66540e+03  2.49542e+00
  8660     96.312  4.36026e+02 -2.10316e+03 -1.66713e+03  2.77808e+00
  8670     95.741  4.33443e+02 -2.10203e+03 -1.66858e+03  3.00361e+00
  8680     95.264  4.31281e+02 -2.10130e+03 -1.67002e+03  3.16654e+00
  8690     94.957  4.29890e+02 -2.10133e+03 -1.67144e+03  3.22762e+00
  8700     94.946  4.29844e+02 -2.10217e+03 -1.67232e+03  3.15817e+00
  8710     95.289  4.31397e+02 -2.10472e+03 -1.67333e+03  2.88716e+00
  8720     95.946  4.34367e+02 -2.10811e+03 -1.67375e+03  2.47066e+00
  8730     96.850  4.38460e+02 -2.11277e+03 -1.67431e+03  1.89296e+00
  8740     97.954  4.43459e+02 -2.11812e+03 -1.67466e+03  1.20267e+00
  8750     99.225  4.49213e+02 -2.12423e+03 -1.67502e+03  4.13617e-01
  8760    100.580  4.55347e+02 -2.13055e+03 -1.67520e+03 -4.09317e-01
  8770    101.842  4.61061e+02 -2.13660e+03 -1.67553e+03 -1.18945e+00
  8780    102.774  4.65280e+02 -2.14153e+03 -1.67625e+03 -1.82007e+00
  8790    103.173  4.67090e+02 -2.14383e+03 -1.67674e+03 -2.16322e+00
  8800    102.953  4.66090e+02 -2.14349e+03 -1.67740e+03 -2.19676e+00
  8810    102.163  4.62517e+02 -2.14060e+03 -1.67809e+03 -1.93510e+00
  8820    100.978  4.57149e+02 -2.13617e+03 -1.67902e+03 -1.47448e+00
  8830     99.638  4.51084e+02 -2.13109e+03 -1.68000e+03 -9.21777e-01
  8840     98.383  4.45402e+02 -2.12650e+03 -1.68110e+03 -4.00986e-01
  8850     97.397  4.40939e+02 -2.12294e+03 -1.68200e+03  8.18414e-03
  8860     96.822  4.38335e+02 -2.12094e+03 -1.68261e+03  2.36674e-01
  8870     96.760  4.38052e+02 -2.12126e+03 -1.68321e+03  2.11593e-01
  8880     97.222  4.40147e+02 -2.12351e+03 -1.68337e+03 -4.92488e-02
  8890     98.096  4.44101e+02 -2.12770e+03 -1.68360e+03 -5.27481e-01
  8900     99.192  4.49065e+02 -2.13272e+03 -1.68365e+03 -1.12050e+00
  8910    100.330  4.54216e+02 -2.13818e+03 -1.68396e+03 -1.76884e+00
  8920    101.378  4.58963e+02 -2.14300e+03 -1.68404e+03 -2.37846e+00
  8930    102.286  4.63071e+02 -2.14735e+03 -1.68428e+03 -2.94255e+00
  8940    103.056  4.66557e+02 -2.15106e+03 -1.68451e+03 -3.44364e+00
  8950    103.678  4.69372e+02 -2.15442e+03 -1.68505e+03 -3.88989e+00
  8960    104.063  4.71115e+02 -2.15676e+03 -1.68564e+03 -4.22008e+00
  8970    104.077  4.71181e+02 -2.15752e+03 -1.68634e+03 -4.37581e+00
  8980    103.638  4.69192e+02 -2.15654e+03 -1.68735e+03 -4.33298e+00
  8990    102.770  4.65261e+02 -2.15373e+03 -1.68847e+03 -4.09504e+00
  9000    101.592  4.59930e+02 -2.14931e+03 -1.68938e+03 -3.70312e+00
  9010    100.294  4.54054e+02 -2.14468e+03 -1.69063e+03 -3.28552e+00
  9020     99.109  4.48689e+02 -2.14034e+03 -1.69165e+03 -2.92326e+00
  9030     98.266  4.44873e+02 -2.13780e+03 -1.69293e+03 -2.75716e+00
  9040     97.924  4.43326e+02 -2.13774e+03 -1.69441e+03 -2.85821e+00
  9050     98.136  4.44282e+02 -2.13970e+03 -1.69542e+03 -3.20825e+00
  9060     98.835  4.47448e+02 -2.14369e+03 -1.69624e+03 -3.79084e+00
  9070     99.848  4.52032e+02 -2.14887e+03 -1.69684e+03 -4.51656e+00
  9080    100.945  4.57001e+02 -2.15496e+03 -1.69796e+03 -5.31915e+00
  9090    101.915  4.61394e+02 -2.16021e+03 -1.69882e+03 -6.04525e+00
  9100    102.592  4.64459e+02 -2.16431e+03 -1.69986e+03 -6.63662e+00
  9110    102.860  4.65669e+02 -2.16638e+03 -1.70071e+03 -7.01321e+00
  9120    102.673  4.64823e+02 -2.16689e+03 -1.70207e+03 -7.19498e+00
  9130    102.089  4.62181e+02 -2.16553e+03 -1.70335e+03 -7.17171e+00
  9140    101.264  4.58445e+02 -2.16321e+03 -1.70476e+03 -7.02832e+00
  9150    100.382  4.54450e+02 -2.16077e+03 -1.70632e+03 -6.85047e+00
  9160     99.575  4.50796e+02 -2.15851e+03 -1.70772e+03 -6.68141e+00
  9170     98.872  4.47614e+02 -2.15663e+03 -1.70902e+03 -6.54006e+00
  9180     98.231  4.44712e+02 -2.15515e+03 -1.71044e+03 -6.42128e+00
  9190     97.619  4.41941e+02 -2.15385e+03 -1.71191e+03 -6.30493e+00
  9200     97.052  4.39376e+02 -2.15272e+03 -1.71334e+03 -6.19137e+00
  9210     96.569  4.37190e+02 -2.15157e+03 -1.71438e+03 -6.07483e+00
  9220     96.199  4.35517e+02 -2.15081e+03 -1.71529e+03 -5.98633e+00
  9230     95.984  4.34539e+02 -2.15065e+03 -1.71612e+03 -5.94570e+00
  9240     95.982  4.34533e+02 -2.15115e+03 -1.71662e+03 -5.96429e+00
  9250     96.212  4.35572e+02 -2.15246e+03 -1.71689e+03 -6.05133e+00
  9260     96.577  4.37227e+02 -2.15425e+03 -1.71703e+03 -6.16783e+00
  9270     96.894  4.38663e+02 -2.15594e+03 -1.71728e+03 -6.24236e+00
  9280     96.978  4.39042e+02 -2.15632e+03 -1.71728e+03 -6.16739e+00
  9290     96.719  4.37867e+02 -2.15512e+03 -1.71725e+03 -5.90367e+00
  9300     96.114  4.35130e+02 -2.15206e+03 -1.71693e+03 -5.43552e+00
  9310     95.283  4.31369e+02 -2.14761e+03 -1.71624e+03 -4.81375e+00
  9320     94.425  4.27485e+02 -2.14284e+03 -1.71535e+03 -4.14395e+00
  9330     93.716  4.24274e+02 -2.13840e+03 -1.71413e+03 -3.50482e+00
  9340     93.198  4.21928e+02 -2.13474e+03 -1.71282e+03 -2.94172e+00
  9350     92.797  4.20112e+02 -2.13146e+03 -1.71135e+03 -2.42947e+00
  9360     92.471  4.18636e+02 -2.12779e+03 -1.70915e+03 -1.92595e+00
  9370     92.323  4.17967e+02 -2.12491e+03 -1.70695e+03 -1.52655e+00
  9380     92.552  4.19002e+02 -2.12354e+03 -1.70454e+03 -1.30621e+00
  9390     93.255  4.22187e+02 -2.12401e+03 -1.70182e+03 -1.29603e+00
  9400     94.304  4.26936e+02 -2.12587e+03 -1.69893e+03 -1.44041e+00
  9410     95.457  4.32157e+02 -2.12761e+03 -1.69545e+03 -1.60106e+00
  9420     96.575  4.37215e+02 -2.12895e+03 -1.69173e+03 -1.72926e+00
  9430     97.679  4.42217e+02 -2.13017e+03 -1.68796e+03 -1.83975e+00
  9440     98.874  4.47623e+02 -2.13159e+03 -1.68397e+03 -1.96119e+00
  9450    100.219  4.53712e+02 -2.13359e+03 -1.67987e+03 -2.12097e+00
  9460    101.669  4.60279e+02 -2.13589e+03 -1.67561e+03 -2.29024e+00
  9470    103.084  4.66687e+02 -2.13824e+03 -1.67156e+03 -2.42596e+00
  9480    104.287  4.72129e+02 -2.13970e+03 -1.66757e+03 -2.43731e+00
  9490    105.130  4.75946e+02 -2.13963e+03 -1.66368e+03 -2.26082e+00
  9500    105.540  4.77802e+02 -2.13753e+03 -1.65973e+03 -1.85685e+00
  9510    105.529  4.77754e+02 -2.13400e+03 -1.65625e+03 -1.27148e+00
  9520    105.201  4.76268e+02 -2.12938e+03 -1.65311e+03 -5.54347e-01
  9530    104.738  4.74174e+02 -2.12458e+03 -1.65041e+03  1.93394e-01
  9540    104.371  4.72511e+02 -2.12041e+03 -1.64790e+03  8.71993e-01
  9550    104.311  4.72241e+02 -2.11772e+03 -1.64547e+03  1.38458e+00
  9560    104.675  4.73888e+02 -2.11708e+03 -1.64319e+03  1.67490e+00
  9570    105.386  4.77105e+02 -2.11816e+03 -1.64106e+03  1.78149e+00
  9580    106.129  4.80472e+02 -2.11957e+03 -1.63910e+03  1.84959e+00
  9590    106.481  4.82064e+02 -2.11949e+03 -1.63742e+03  2.06848e+00
  9600    106.157  4.80599e+02 -2.11667e+03 -1.63607e+03  2.56310e+00
  9610    105.194  4.76237e+02 -2.11139e+03 -1.63515e+03  3.30886e+00
  9620    103.913  4.70438e+02 -2.10522e+03 -1.63478e+03  4.14628e+00
  9630    102.771  4.65266e+02 -2.09965e+03 -1.63438e+03  4.89309e+00
  9640    102.147  4.62441e+02 -2.09637e+03 -1.63393e+03  5.36219e+00
  9650    102.158  4.62493e+02 -2.09575e+03 -1.63326e+03  5.49124e+00
  9660    102.673  4.64824e+02 -2.09793e+03 -1.63311e+03  5.27437e+00
  9670    103.533  4.68716e+02 -2.10189e+03 -1.63318e+03  4.79003e+00
  9680    104.675  4.73885e+02 -2.10715e+03 -1.63327e+03  4.08190e+00
  9690    106.052  4.80119e+02 -2.11402e+03 -1.63390e+03  3.15275e+00
  9700    107.548  4.86893e+02 -2.12134e+03 -1.63444e+03  2.11332e+00
  9710    108.957  4.93272e+02 -2.12896e+03 -1.63568e+03  1.03146e+00
  9720    110.017  4.98071e+02 -2.13510e+03 -1.63703e+03  8.27832e-02
  9730    110.504  5.00278e+02 -2.13912e+03 -1.63884e+03 -6.34038e-01
  9740    110.326  4.99472e+02 -2.14071e+03 -1.64124e+03 -1.06640e+00
  9750    109.532  4.95875e+02 -2.13996e+03 -1.64408e+03 -1.21475e+00
  9760    108.249  4.90070e+02 -2.13746e+03 -1.64739e+03 -1.12851e+00
  9770    106.617  4.82681e+02 -2.13394e+03 -1.65126e+03 -8.75898e-01
  9780    104.763  4.74286e+02 -2.12969e+03 -1.65540e+03 -4.99858e-01
  9790    102.796  4.65381e+02 -2.12463e+03 -1.65925e+03 -2.38726e-02
  9800    100.818  4.56427e+02 -2.11975e+03 -1.66333e+03  4.63347e-01
  9810     98.951  4.47973e+02 -2.11537e+03 -1.66739e+03  9.10259e-01
  9820     97.348  4.40717e+02 -2.11202e+03 -1.67130e+03  1.24856e+00
  9830     96.150  4.35291e+02 -2.11072e+03 -1.67543e+03  1.38609e+00
  9840     95.408  4.31935e+02 -2.11135e+03 -1.67942e+03  1.31926e+00
  9850     95.053  4.30327e+02 -2.11316e+03 -1.68284e+03  1.10608e+00
  9860     94.903  4.29649e+02 -2.11577e+03 -1.68612e+03  8.05257e-01
  9870     94.728  4.28853e+02 -2.11802e+03 -1.68917e+03  5.30376e-01
  9880     94.336  4.27080e+02 -2.11896e+03 -1.69188e+03  3.76504e-01
  9890     93.680  4.24109e+02 -2.11860e+03 -1.69449e+03  3.51975e-01
  9900     92.880  4.20487e+02 -2.11713e+03 -1.69665e+03  4.21440e-01
  9910     92.167  4.17261e+02 -2.11581e+03 -1.69854e+03  4.64198e-01
  9920     91.779  4.15503e+02 -2.11535e+03 -1.69984e+03  3.89512e-01
  9930     91.869  4.15914e+02 -2.11693e+03 -1.70102e+03  9.61748e-02
  9940     92.456  4.18571e+02 -2.12036e+03 -1.70179e+03 -4.05587e-01
  9950     93.404  4.22863e+02 -2.12538e+03 -1.70252e+03 -1.06964e+00
  9960     94.460  4.27644e+02 -2.13057e+03 -1.70292e+03 -1.75589e+00
  9970     95.339  4.31621e+02 -2.13471e+03 -1.70309e+03 -2.33236e+00
  9980     95.839  4.33883e+02 -2.13699e+03 -1.70311e+03 -2.70796e+00
  9990     95.917  4.34236e+02 -2.13701e+03 -1.70278e+03 -2.84798e+00
