Step    T(K)    KE(kJ)    PE(kJ)    TotE(kJ)    P(MPa)
     0      0.102  4.62051e-01 -1.63103e+03 -1.63057e+03  1.97224e+02
    10      0.432  1.95543e+00 -1.63252e+03 -1.63056e+03  1.96932e+02
    20      1.308  5.92111e+00 -1.63642e+03 -1.63050e+03  1.96160e+02
    30      2.689  1.21751e+01 -1.64244e+03 -1.63026e+03  1.94949e+02
    40      4.523  2.04773e+01 -1.65015e+03 -1.62967e+03  1.93357e+02
    50      6.759  3.05983e+01 -1.65911e+03 -1.62851e+03  1.91453e+02
    60      9.361  4.23803e+01 -1.66890e+03 -1.62652e+03  1.89303e+02
    70     12.321  5.57811e+01 -1.67905e+03 -1.62327e+03  1.86973e+02
    80     15.659  7.08921e+01 -1.68940e+03 -1.61851e+03  1.84508e+02
    90     19.427  8.79504e+01 -1.69901e+03 -1.61106e+03  1.81999e+02
   100     23.699  1.07289e+02 -1.70897e+03 -1.60169e+03  1.79404e+02
   110     28.578  1.29381e+02 -1.71343e+03 -1.58405e+03  1.77113e+02
   120     34.189  1.54780e+02 -1.72144e+03 -1.56666e+03  1.74599e+02
   130     40.640  1.83987e+02 -1.73169e+03 -1.54770e+03  1.71970e+02
   140     48.067  2.17609e+02 -1.74104e+03 -1.52343e+03  1.69451e+02
   150     56.613  2.56300e+02 -1.74864e+03 -1.49234e+03  1.67132e+02
   160     66.425  3.00721e+02 -1.75628e+03 -1.45556e+03  1.64944e+02
   170     77.632  3.51459e+02 -1.76327e+03 -1.41181e+03  1.62975e+02
   180     90.356  4.09064e+02 -1.76678e+03 -1.35771e+03  1.61442e+02
   190    104.677  4.73898e+02 -1.77013e+03 -1.29624e+03  1.60185e+02
   200    120.608  5.46019e+02 -1.77184e+03 -1.22582e+03  1.59331e+02
   210    138.078  6.25111e+02 -1.77119e+03 -1.14607e+03  1.58945e+02
   220    156.897  7.10308e+02 -1.76837e+03 -1.05806e+03  1.59019e+02
   230    176.719  8.00046e+02 -1.76320e+03 -9.63156e+02  1.59540e+02
   240    197.003  8.91876e+02 -1.75637e+03 -8.64494e+02  1.60410e+02
   250    216.991  9.82368e+02 -1.74642e+03 -7.64053e+02  1.61628e+02
   260    235.707  1.06710e+03 -1.73320e+03 -6.66106e+02  1.63082e+02
   270    251.988  1.14081e+03 -1.71725e+03 -5.76446e+02  1.64598e+02
   280    264.608  1.19794e+03 -1.69824e+03 -5.00302e+02  1.66041e+02
   290    272.560  1.23394e+03 -1.67550e+03 -4.41565e+02  1.67278e+02
   300    275.526  1.24737e+03 -1.65044e+03 -4.03070e+02  1.68029e+02
   310    273.977  1.24036e+03 -1.62543e+03 -3.85079e+02  1.67951e+02
   320    268.487  1.21550e+03 -1.60511e+03 -3.89612e+02  1.66667e+02
   330    259.360  1.17418e+03 -1.58922e+03 -4.15038e+02  1.64244e+02
   340    247.218  1.11921e+03 -1.57732e+03 -4.58105e+02  1.60813e+02
   350    233.114  1.05536e+03 -1.57077e+03 -5.15412e+02  1.56400e+02
   360    217.956  9.86735e+02 -1.57010e+03 -5.83363e+02  1.51126e+02
   370    202.197  9.15390e+02 -1.57310e+03 -6.57706e+02  1.45343e+02
   380    186.046  8.42274e+02 -1.57764e+03 -7.35366e+02  1.39417e+02
   390    169.775  7.68608e+02 -1.58226e+03 -8.13649e+02  1.33635e+02
   400    153.789  6.96237e+02 -1.58620e+03 -8.89960e+02  1.28171e+02
   410    138.556  6.27276e+02 -1.58956e+03 -9.62284e+02  1.23082e+02
   420    124.491  5.63599e+02 -1.59304e+03 -1.02944e+03  1.18335e+02
   430    111.875  5.06483e+02 -1.59752e+03 -1.09104e+03  1.13858e+02
   440    100.819  4.56431e+02 -1.60368e+03 -1.14725e+03  1.09579e+02
   450     91.277  4.13230e+02 -1.61149e+03 -1.19826e+03  1.05475e+02
   460     83.095  3.76190e+02 -1.62010e+03 -1.24391e+03  1.01578e+02
   470     76.089  3.44472e+02 -1.62959e+03 -1.28511e+03  9.78632e+01
   480     70.102  3.17367e+02 -1.63942e+03 -1.32205e+03  9.43431e+01
   490     65.033  2.94421e+02 -1.64999e+03 -1.35557e+03  9.09617e+01
   500     60.834  2.75410e+02 -1.66116e+03 -1.38575e+03  8.76889e+01
   510     57.480  2.60225e+02 -1.67320e+03 -1.41297e+03  8.44642e+01
   520     54.948  2.48761e+02 -1.68676e+03 -1.43800e+03  8.12070e+01
   530     53.192  2.40814e+02 -1.70180e+03 -1.46099e+03  7.78877e+01
   540     52.145  2.36074e+02 -1.71818e+03 -1.48210e+03  7.44922e+01
   550     51.720  2.34149e+02 -1.73595e+03 -1.50181e+03  7.10055e+01
   560     51.826  2.34628e+02 -1.75518e+03 -1.52056e+03  6.74209e+01
   570     52.381  2.37139e+02 -1.77529e+03 -1.53815e+03  6.37758e+01
   580     53.314  2.41366e+02 -1.79618e+03 -1.55481e+03  6.00804e+01
   590     54.571  2.47057e+02 -1.81778e+03 -1.57072e+03  5.63461e+01
   600     56.104  2.53994e+02 -1.83980e+03 -1.58581e+03  5.25967e+01
   610     57.868  2.61979e+02 -1.86221e+03 -1.60023e+03  4.88437e+01
   620     59.822  2.70828e+02 -1.88463e+03 -1.61380e+03  4.51188e+01
   630     61.928  2.80363e+02 -1.90749e+03 -1.62713e+03  4.14044e+01
   640     64.149  2.90415e+02 -1.93003e+03 -1.63961e+03  3.77581e+01
   650     66.444  3.00805e+02 -1.95240e+03 -1.65160e+03  3.41797e+01
   660     68.775  3.11360e+02 -1.97431e+03 -1.66295e+03  3.06989e+01
   670     71.105  3.21907e+02 -1.99556e+03 -1.67366e+03  2.73382e+01
   680     73.395  3.32276e+02 -2.01565e+03 -1.68338e+03  2.41389e+01
   690     75.612  3.42312e+02 -2.03513e+03 -1.69281e+03  2.10780e+01
   700     77.724  3.51875e+02 -2.05358e+03 -1.70171e+03  1.81895e+01
   710     79.693  3.60789e+02 -2.07091e+03 -1.71012e+03  1.54927e+01
   720     81.457  3.68776e+02 -2.08654e+03 -1.71776e+03  1.30376e+01
   730     82.926  3.75423e+02 -2.10007e+03 -1.72464e+03  1.08692e+01
   740     83.984  3.80213e+02 -2.11138e+03 -1.73117e+03  9.01660e+00
   750     84.534  3.82705e+02 -2.11982e+03 -1.73712e+03  7.53526e+00
   760     84.554  3.82793e+02 -2.12512e+03 -1.74233e+03  6.44096e+00
   770     84.128  3.80865e+02 -2.12784e+03 -1.74697e+03  5.67587e+00
   780     83.438  3.77743e+02 -2.12876e+03 -1.75101e+03  5.14668e+00
   790     82.706  3.74430e+02 -2.12879e+03 -1.75436e+03  4.74331e+00
   800     82.138  3.71855e+02 -2.12875e+03 -1.75690e+03  4.36104e+00
   810     81.898  3.70772e+02 -2.12952e+03 -1.75874e+03  3.90223e+00
   820     82.108  3.71721e+02 -2.13174e+03 -1.76001e+03  3.29290e+00
   830     82.827  3.74975e+02 -2.13568e+03 -1.76070e+03  2.50040e+00
   840     84.046  3.80496e+02 -2.14129e+03 -1.76079e+03  1.52993e+00
   850     85.701  3.87987e+02 -2.14824e+03 -1.76025e+03  4.20146e-01
   860     87.676  3.96929e+02 -2.15636e+03 -1.75943e+03 -7.88236e-01
   870     89.814  4.06610e+02 -2.16455e+03 -1.75794e+03 -1.98729e+00
   880     91.928  4.16180e+02 -2.17234e+03 -1.75616e+03 -3.10555e+00
   890     93.814  4.24715e+02 -2.17861e+03 -1.75390e+03 -4.03118e+00
   900     95.293  4.31415e+02 -2.18286e+03 -1.75144e+03 -4.70170e+00
   910     96.289  4.35921e+02 -2.18444e+03 -1.74852e+03 -5.06900e+00
   920     96.875  4.38577e+02 -2.18400e+03 -1.74543e+03 -5.19279e+00
   930     97.281  4.40415e+02 -2.18239e+03 -1.74197e+03 -5.17292e+00
   940     97.798  4.42752e+02 -2.18138e+03 -1.73862e+03 -5.17419e+00
   950     98.602  4.46393e+02 -2.18128e+03 -1.73489e+03 -5.25063e+00
   960     99.626  4.51028e+02 -2.18239e+03 -1.73136e+03 -5.40908e+00
   970    100.602  4.55447e+02 -2.18297e+03 -1.72753e+03 -5.49951e+00
   980    101.253  4.58397e+02 -2.18190e+03 -1.72351e+03 -5.40545e+00
   990    101.451  4.59293e+02 -2.17910e+03 -1.71980e+03 -5.10156e+00
  1000    101.256  4.58409e+02 -2.17437e+03 -1.71596e+03 -4.59132e+00
  1010    100.880  4.56708e+02 -2.16929e+03 -1.71258e+03 -4.01495e+00
  1020    100.612  4.55494e+02 -2.16440e+03 -1.70891e+03 -3.46317e+00
  1030    100.702  4.55899e+02 -2.16098e+03 -1.70508e+03 -3.06163e+00
  1040    101.229  4.58285e+02 -2.16005e+03 -1.70176e+03 -2.88640e+00
  1050    102.042  4.61969e+02 -2.16028e+03 -1.69831e+03 -2.82852e+00
  1060    102.863  4.65683e+02 -2.16068e+03 -1.69500e+03 -2.77433e+00
  1070    103.456  4.68368e+02 -2.16002e+03 -1.69165e+03 -2.60177e+00
  1080    103.728  4.69602e+02 -2.15801e+03 -1.68841e+03 -2.27070e+00
  1090    103.702  4.69480e+02 -2.15481e+03 -1.68533e+03 -1.78877e+00
  1100    103.433  4.68264e+02 -2.15071e+03 -1.68245e+03 -1.18215e+00
  1110    102.969  4.66164e+02 -2.14597e+03 -1.67981e+03 -4.80065e-01
  1120    102.367  4.63438e+02 -2.14052e+03 -1.67708e+03  3.04689e-01
  1130    101.725  4.60533e+02 -2.13508e+03 -1.67454e+03  1.10098e+00
  1140    101.170  4.58018e+02 -2.13006e+03 -1.67204e+03  1.85248e+00
  1150    100.815  4.56414e+02 -2.12643e+03 -1.67002e+03  2.47176e+00
  1160    100.717  4.55968e+02 -2.12397e+03 -1.66800e+03  2.95683e+00
  1170    100.853  4.56586e+02 -2.12249e+03 -1.66590e+03  3.31732e+00
  1180    101.134  4.57855e+02 -2.12168e+03 -1.66382e+03  3.58575e+00
  1190    101.441  4.59248e+02 -2.12087e+03 -1.66162e+03  3.81958e+00
  1200    101.706  4.60446e+02 -2.12026e+03 -1.65981e+03  4.01750e+00
  1210    101.957  4.61584e+02 -2.11944e+03 -1.65786e+03  4.19897e+00
  1220    102.328  4.63261e+02 -2.11926e+03 -1.65600e+03  4.28989e+00
  1230    102.965  4.66146e+02 -2.12027e+03 -1.65412e+03  4.23664e+00
  1240    103.879  4.70286e+02 -2.12297e+03 -1.65269e+03  4.01087e+00
  1250    104.886  4.74841e+02 -2.12594e+03 -1.65110e+03  3.73486e+00
  1260    105.722  4.78625e+02 -2.12830e+03 -1.64968e+03  3.50849e+00
  1270    106.213  4.80848e+02 -2.12953e+03 -1.64868e+03  3.39733e+00
  1280    106.363  4.81531e+02 -2.12955e+03 -1.64802e+03  3.40843e+00
  1290    106.318  4.81324e+02 -2.12888e+03 -1.64755e+03  3.48934e+00
  1300    106.210  4.80835e+02 -2.12836e+03 -1.64753e+03  3.56557e+00
  1310    106.063  4.80172e+02 -2.12823e+03 -1.64806e+03  3.61715e+00
  1320    105.821  4.79077e+02 -2.12745e+03 -1.64837e+03  3.71342e+00
  1330    105.413  4.77226e+02 -2.12636e+03 -1.64914e+03  3.84093e+00
  1340    104.783  4.74376e+02 -2.12467e+03 -1.65029e+03  4.02067e+00
  1350    103.958  4.70643e+02 -2.12210e+03 -1.65146e+03  4.25699e+00
  1360    103.114  4.66818e+02 -2.11956e+03 -1.65274e+03  4.46174e+00
  1370    102.507  4.64073e+02 -2.11852e+03 -1.65445e+03  4.49802e+00
  1380    102.292  4.63099e+02 -2.11925e+03 -1.65615e+03  4.32570e+00
  1390    102.413  4.63648e+02 -2.12144e+03 -1.65779e+03  3.97519e+00
  1400    102.681  4.64861e+02 -2.12435e+03 -1.65949e+03  3.53209e+00
  1410    102.871  4.65722e+02 -2.12705e+03 -1.66133e+03  3.10212e+00
  1420    102.794  4.65371e+02 -2.12905e+03 -1.66367e+03  2.75864e+00
  1430    102.357  4.63393e+02 -2.12929e+03 -1.66590e+03  2.59099e+00
  1440    101.587  4.59908e+02 -2.12799e+03 -1.66808e+03  2.58946e+00
  1450    100.584  4.55364e+02 -2.12587e+03 -1.67050e+03  2.69333e+00
  1460     99.447  4.50220e+02 -2.12331e+03 -1.67308e+03  2.85856e+00
  1470     98.273  4.44903e+02 -2.12069e+03 -1.67579e+03  3.03661e+00
  1480     97.193  4.40015e+02 -2.11788e+03 -1.67787e+03  3.20200e+00
  1490     96.418  4.36504e+02 -2.11620e+03 -1.67970e+03  3.22849e+00
  1500     96.158  4.35328e+02 -2.11705e+03 -1.68172e+03  2.99140e+00
  1510     96.482  4.36796e+02 -2.12007e+03 -1.68327e+03  2.50075e+00
  1520     97.250  4.40272e+02 -2.12511e+03 -1.68484e+03  1.79493e+00
  1530     98.159  4.44386e+02 -2.13070e+03 -1.68632e+03  1.02425e+00
  1540     98.878  4.47642e+02 -2.13532e+03 -1.68768e+03  3.50194e-01
  1550     99.181  4.49014e+02 -2.13798e+03 -1.68897e+03 -1.16457e-01
  1560     99.025  4.48307e+02 -2.13839e+03 -1.69008e+03 -3.38357e-01
  1570     98.528  4.46058e+02 -2.13739e+03 -1.69134e+03 -3.82389e-01
  1580     97.889  4.43168e+02 -2.13566e+03 -1.69250e+03 -3.21148e-01
  1590     97.300  4.40497e+02 -2.13423e+03 -1.69373e+03 -2.54243e-01
  1600     96.889  4.38641e+02 -2.13332e+03 -1.69468e+03 -2.25538e-01
  1610     96.710  4.37826e+02 -2.13343e+03 -1.69561e+03 -2.82893e-01
  1620     96.732  4.37927e+02 -2.13435e+03 -1.69643e+03 -4.16703e-01
  1630     96.880  4.38599e+02 -2.13596e+03 -1.69736e+03 -6.13933e-01
  1640     97.082  4.39511e+02 -2.13714e+03 -1.69763e+03 -7.99218e-01
  1650     97.291  4.40460e+02 -2.13849e+03 -1.69803e+03 -1.00353e+00
  1660     97.493  4.41371e+02 -2.13934e+03 -1.69797e+03 -1.18292e+00
  1670     97.681  4.42222e+02 -2.13993e+03 -1.69771e+03 -1.35091e+00
  1680     97.862  4.43041e+02 -2.14069e+03 -1.69765e+03 -1.53175e+00
  1690     98.058  4.43930e+02 -2.14105e+03 -1.69712e+03 -1.69135e+00
  1700     98.308  4.45062e+02 -2.14181e+03 -1.69675e+03 -1.87653e+00
  1710     98.621  4.46478e+02 -2.14311e+03 -1.69664e+03 -2.08895e+00
  1720     98.925  4.47854e+02 -2.14395e+03 -1.69609e+03 -2.24701e+00
  1730     99.078  4.48547e+02 -2.14405e+03 -1.69550e+03 -2.30631e+00
  1740     98.960  4.48013e+02 -2.14273e+03 -1.69472e+03 -2.20442e+00
  1750     98.577  4.46280e+02 -2.14045e+03 -1.69417e+03 -1.97211e+00
  1760     98.079  4.44026e+02 -2.13719e+03 -1.69317e+03 -1.63903e+00
  1770     97.659  4.42126e+02 -2.13477e+03 -1.69265e+03 -1.35390e+00
  1780     97.436  4.41116e+02 -2.13280e+03 -1.69168e+03 -1.12239e+00
  1790     97.417  4.41030e+02 -2.13173e+03 -1.69070e+03 -9.86223e-01
  1800     97.540  4.41585e+02 -2.13129e+03 -1.68970e+03 -9.28546e-01
  1810     97.764  4.42600e+02 -2.13131e+03 -1.68871e+03 -9.42859e-01
  1820     98.152  4.44355e+02 -2.13154e+03 -1.68719e+03 -1.03001e+00
  1830     98.803  4.47301e+02 -2.13317e+03 -1.68587e+03 -1.27891e+00
  1840     99.688  4.51311e+02 -2.13595e+03 -1.68463e+03 -1.66609e+00
  1850    100.633  4.55589e+02 -2.13871e+03 -1.68312e+03 -2.08686e+00
  1860    101.436  4.59223e+02 -2.14054e+03 -1.68132e+03 -2.44208e+00
  1870    101.961  4.61598e+02 -2.14133e+03 -1.67973e+03 -2.69201e+00
  1880    102.151  4.62459e+02 -2.14070e+03 -1.67824e+03 -2.79663e+00
  1890    102.027  4.61897e+02 -2.13876e+03 -1.67686e+03 -2.76031e+00
  1900    101.677  4.60316e+02 -2.13601e+03 -1.67569e+03 -2.62661e+00
  1910    101.244  4.58355e+02 -2.13278e+03 -1.67442e+03 -2.44018e+00
  1920    100.895  4.56773e+02 -2.12997e+03 -1.67319e+03 -2.28556e+00
  1930    100.764  4.56183e+02 -2.12847e+03 -1.67228e+03 -2.24234e+00
  1940    100.901  4.56803e+02 -2.12829e+03 -1.67148e+03 -2.32036e+00
  1950    101.250  4.58382e+02 -2.12916e+03 -1.67078e+03 -2.49336e+00
  1960    101.679  4.60323e+02 -2.12997e+03 -1.66965e+03 -2.67020e+00
  1970    102.039  4.61952e+02 -2.13050e+03 -1.66854e+03 -2.81204e+00
  1980    102.227  4.62805e+02 -2.13073e+03 -1.66793e+03 -2.90317e+00
  1990    102.279  4.63041e+02 -2.13019e+03 -1.66715e+03 -2.92172e+00
  2000    102.398  4.63579e+02 -2.13043e+03 -1.66685e+03 -2.99823e+00
  2010    102.804  4.65418e+02 -2.13183e+03 -1.66642e+03 -3.19200e+00
  2020    103.494  4.68543e+02 -2.13482e+03 -1.66627e+03 -3.52673e+00
  2030    104.211  4.71788e+02 -2.13824e+03 -1.66645e+03 -3.89172e+00
  2040    104.661  4.73825e+02 -2.14040e+03 -1.66657e+03 -4.13373e+00
  2050    104.685  4.73931e+02 -2.14066e+03 -1.66673e+03 -4.18429e+00
  2060    104.279  4.72095e+02 -2.13936e+03 -1.66727e+03 -4.06283e+00
  2070    103.562  4.68846e+02 -2.13690e+03 -1.66806e+03 -3.81747e+00
  2080    102.711  4.64994e+02 -2.13390e+03 -1.66890e+03 -3.52218e+00
  2090    101.903  4.61337e+02 -2.13128e+03 -1.66994e+03 -3.27161e+00
  2100    101.269  4.58467e+02 -2.12953e+03 -1.67106e+03 -3.12397e+00
  2110    100.881  4.56711e+02 -2.12880e+03 -1.67209e+03 -3.10637e+00
  2120    100.754  4.56138e+02 -2.12926e+03 -1.67313e+03 -3.23346e+00
  2130    100.862  4.56624e+02 -2.13104e+03 -1.67442e+03 -3.50380e+00
  2140    101.147  4.57916e+02 -2.13367e+03 -1.67575e+03 -3.87072e+00
  2150    101.512  4.59569e+02 -2.13644e+03 -1.67687e+03 -4.26338e+00
  2160    101.801  4.60878e+02 -2.13901e+03 -1.67813e+03 -4.62155e+00
  2170    101.854  4.61115e+02 -2.14045e+03 -1.67934e+03 -4.85165e+00
  2180    101.560  4.59785e+02 -2.14058e+03 -1.68079e+03 -4.91246e+00
  2190    100.872  4.56669e+02 -2.13905e+03 -1.68238e+03 -4.77050e+00
  2200     99.801  4.51820e+02 -2.13605e+03 -1.68423e+03 -4.43675e+00
  2210     98.431  4.45619e+02 -2.13117e+03 -1.68555e+03 -3.90405e+00
  2220     96.939  4.38864e+02 -2.12596e+03 -1.68709e+03 -3.30610e+00
  2230     95.582  4.32723e+02 -2.12094e+03 -1.68822e+03 -2.72890e+00
  2240     94.622  4.28377e+02 -2.11793e+03 -1.68955e+03 -2.33677e+00
  2250     94.184  4.26391e+02 -2.11650e+03 -1.69011e+03 -2.13283e+00
  2260     94.196  4.26447e+02 -2.11710e+03 -1.69066e+03 -2.13953e+00
  2270     94.473  4.27699e+02 -2.11817e+03 -1.69047e+03 -2.23158e+00
  2280     94.810  4.29226e+02 -2.11945e+03 -1.69023e+03 -2.35812e+00
  2290     95.043  4.30282e+02 -2.12034e+03 -1.69006e+03 -2.44980e+00
  2300     95.070  4.30405e+02 -2.11997e+03 -1.68957e+03 -2.43366e+00
  2310     94.886  4.29570e+02 -2.11879e+03 -1.68922e+03 -2.33424e+00
  2320     94.604  4.28296e+02 -2.11677e+03 -1.68847e+03 -2.16915e+00
  2330     94.424  4.27478e+02 -2.11483e+03 -1.68735e+03 -2.02951e+00
  2340     94.538  4.27993e+02 -2.11378e+03 -1.68579e+03 -1.99843e+00
  2350     95.059  4.30353e+02 -2.11430e+03 -1.68395e+03 -2.13541e+00
  2360     95.995  4.34592e+02 -2.11641e+03 -1.68182e+03 -2.44055e+00
  2370     97.262  4.40328e+02 -2.11998e+03 -1.67965e+03 -2.88598e+00
  2380     98.709  4.46879e+02 -2.12419e+03 -1.67731e+03 -3.38907e+00
  2390    100.175  4.53514e+02 -2.12869e+03 -1.67517e+03 -3.89314e+00
  2400    101.553  4.59754e+02 -2.13264e+03 -1.67289e+03 -4.32101e+00
  2410    102.816  4.65472e+02 -2.13624e+03 -1.67076e+03 -4.66908e+00
  2420    103.956  4.70634e+02 -2.13954e+03 -1.66890e+03 -4.93176e+00
  2430    104.920  4.74997e+02 -2.14188e+03 -1.66688e+03 -5.05181e+00
  2440    105.576  4.77968e+02 -2.14290e+03 -1.66493e+03 -4.98051e+00
  2450    105.750  4.78752e+02 -2.14214e+03 -1.66339e+03 -4.65917e+00
  2460    105.297  4.76704e+02 -2.13911e+03 -1.66241e+03 -4.03557e+00
  2470    104.192  4.71699e+02 -2.13337e+03 -1.66167e+03 -3.08771e+00
  2480    102.560  4.64313e+02 -2.12550e+03 -1.66118e+03 -1.88462e+00
  2490    100.641  4.55625e+02 -2.11642e+03 -1.66080e+03 -5.41668e-01
  2500     98.698  4.46826e+02 -2.10698e+03 -1.66015e+03  8.24243e-01
  2510     96.974  4.39024e+02 -2.09854e+03 -1.65951e+03  2.06313e+00
  2520     95.712  4.33312e+02 -2.09228e+03 -1.65897e+03  3.03974e+00
  2530     95.163  4.30825e+02 -2.08881e+03 -1.65799e+03  3.65916e+00
  2540     95.513  4.32409e+02 -2.08937e+03 -1.65696e+03  3.80728e+00
  2550     96.735  4.37941e+02 -2.09342e+03 -1.65548e+03  3.52087e+00
  2560     98.540  4.46113e+02 -2.10023e+03 -1.65412e+03  2.89958e+00
  2570    100.533  4.55134e+02 -2.10773e+03 -1.65260e+03  2.14604e+00
  2580    102.412  4.63643e+02 -2.11455e+03 -1.65090e+03  1.40779e+00
  2590    104.044  4.71030e+02 -2.12056e+03 -1.64953e+03  7.29243e-01
  2600    105.390  4.77126e+02 -2.12500e+03 -1.64788e+03  1.74352e-01
  2610    106.434  4.81852e+02 -2.12833e+03 -1.64648e+03 -2.75769e-01
  2620    107.152  4.85103e+02 -2.13079e+03 -1.64568e+03 -6.28231e-01
  2630    107.533  4.86827e+02 -2.13161e+03 -1.64478e+03 -8.34908e-01
  2640    107.630  4.87267e+02 -2.13197e+03 -1.64470e+03 -9.75944e-01
  2650    107.583  4.87052e+02 -2.13198e+03 -1.64493e+03 -1.07861e+00
  2660    107.547  4.86890e+02 -2.13219e+03 -1.64530e+03 -1.19731e+00
  2670    107.573  4.87008e+02 -2.13328e+03 -1.64627e+03 -1.37737e+00
  2680    107.563  4.86964e+02 -2.13479e+03 -1.64783e+03 -1.56828e+00
  2690    107.344  4.85969e+02 -2.13534e+03 -1.64937e+03 -1.64847e+00
  2700    106.752  4.83289e+02 -2.13458e+03 -1.65129e+03 -1.56346e+00
  2710    105.684  4.78454e+02 -2.13218e+03 -1.65372e+03 -1.26914e+00
  2720    104.112  4.71339e+02 -2.12748e+03 -1.65614e+03 -7.20149e-01
  2730    102.092  4.62191e+02 -2.12118e+03 -1.65899e+03  3.05530e-02
  2740     99.752  4.51598e+02 -2.11336e+03 -1.66177e+03  9.46672e-01
  2750     97.290  4.40453e+02 -2.10512e+03 -1.66466e+03  1.91442e+00
  2760     94.967  4.29937e+02 -2.09683e+03 -1.66689e+03  2.84791e+00
  2770     93.095  4.21463e+02 -2.09037e+03 -1.66891e+03  3.56187e+00
  2780     91.986  4.16439e+02 -2.08716e+03 -1.67073e+03  3.90481e+00
  2790     91.814  4.15662e+02 -2.08774e+03 -1.67207e+03  3.80784e+00
  2800     92.510  4.18814e+02 -2.09222e+03 -1.67341e+03  3.27388e+00
  2810     93.806  4.24683e+02 -2.09883e+03 -1.67415e+03  2.46366e+00
  2820     95.395  4.31874e+02 -2.10666e+03 -1.67478e+03  1.49884e+00
  2830     97.035  4.39297e+02 -2.11454e+03 -1.67524e+03  5.08709e-01
  2840     98.548  4.46147e+02 -2.12160e+03 -1.67545e+03 -4.04378e-01
  2850     99.790  4.51771e+02 -2.12765e+03 -1.67588e+03 -1.18820e+00
  2860    100.647  4.55652e+02 -2.13158e+03 -1.67593e+03 -1.74363e+00
  2870    101.060  4.57523e+02 -2.13364e+03 -1.67612e+03 -2.06804e+00
  2880    101.039  4.57428e+02 -2.13359e+03 -1.67616e+03 -2.14348e+00
  2890    100.657  4.55697e+02 -2.13161e+03 -1.67592e+03 -1.99555e+00
  2900    100.029  4.52852e+02 -2.12949e+03 -1.67664e+03 -1.75781e+00
  2910     99.302  4.49564e+02 -2.12666e+03 -1.67710e+03 -1.42993e+00
  2920     98.651  4.46616e+02 -2.12423e+03 -1.67762e+03 -1.11814e+00
  2930     98.240  4.44754e+02 -2.12243e+03 -1.67767e+03 -8.70778e-01
  2940     98.157  4.44377e+02 -2.12244e+03 -1.67807e+03 -7.82188e-01
  2950     98.337  4.45193e+02 -2.12345e+03 -1.67826e+03 -7.93474e-01
  2960     98.569  4.46243e+02 -2.12453e+03 -1.67829e+03 -8.14769e-01
  2970     98.629  4.46517e+02 -2.12477e+03 -1.67825e+03 -7.53601e-01
  2980     98.441  4.45664e+02 -2.12371e+03 -1.67805e+03 -5.68066e-01
  2990     98.087  4.44061e+02 -2.12201e+03 -1.67795e+03 -3.10708e-01
  3000     97.715  4.42379e+02 -2.12006e+03 -1.67768e+03 -3.02814e-02
  3010     97.426  4.41070e+02 -2.11836e+03 -1.67729e+03  2.25784e-01
  3020     97.218  4.40127e+02 -2.11716e+03 -1.67703e+03  4.41356e-01
  3030     97.014  4.39202e+02 -2.11584e+03 -1.67664e+03  6.64005e-01
  3040     96.722  4.37882e+02 -2.11354e+03 -1.67566e+03  9.58533e-01
  3050     96.330  4.36109e+02 -2.11076e+03 -1.67465e+03  1.28861e+00
  3060     95.980  4.34524e+02 -2.10786e+03 -1.67334e+03  1.60072e+00
  3070     95.937  4.34327e+02 -2.10640e+03 -1.67207e+03  1.75159e+00
  3080     96.409  4.36463e+02 -2.10703e+03 -1.67057e+03  1.66547e+00
  3090     97.372  4.40826e+02 -2.10984e+03 -1.66901e+03  1.34284e+00
  3100     98.596  4.46365e+02 -2.11369e+03 -1.66732e+03  8.95685e-01
  3110     99.807  4.51851e+02 -2.11741e+03 -1.66556e+03  4.49673e-01
  3120    100.794  4.56317e+02 -2.11994e+03 -1.66362e+03  1.18458e-01
  3130    101.413  4.59119e+02 -2.12098e+03 -1.66186e+03 -4.62882e-02
  3140    101.611  4.60016e+02 -2.12004e+03 -1.66003e+03 -5.29850e-04
  3150    101.448  4.59276e+02 -2.11754e+03 -1.65827e+03  2.22212e-01
  3160    101.061  4.57525e+02 -2.11395e+03 -1.65643e+03  5.67189e-01
  3170    100.593  4.55406e+02 -2.11003e+03 -1.65462e+03  9.58276e-01
  3180    100.198  4.53619e+02 -2.10683e+03 -1.65321e+03  1.29775e+00
  3190    100.076  4.53067e+02 -2.10501e+03 -1.65195e+03  1.50893e+00
  3200    100.375  4.54422e+02 -2.10472e+03 -1.65030e+03  1.56020e+00
  3210    101.043  4.57444e+02 -2.10625e+03 -1.64881e+03  1.44639e+00
  3220    101.826  4.60990e+02 -2.10819e+03 -1.64720e+03  1.29884e+00
  3230    102.436  4.63751e+02 -2.10950e+03 -1.64574e+03  1.23372e+00
  3240    102.705  4.64968e+02 -2.10882e+03 -1.64385e+03  1.36283e+00
  3250    102.659  4.64762e+02 -2.10737e+03 -1.64261e+03  1.60594e+00
  3260    102.484  4.63968e+02 -2.10532e+03 -1.64135e+03  1.91940e+00
  3270    102.410  4.63632e+02 -2.10394e+03 -1.64031e+03  2.18257e+00
  3280    102.576  4.64386e+02 -2.10396e+03 -1.63957e+03  2.32495e+00
  3290    102.955  4.66100e+02 -2.10506e+03 -1.63896e+03  2.37081e+00
  3300    103.374  4.67997e+02 -2.10628e+03 -1.63829e+03  2.40732e+00
  3310    103.615  4.69087e+02 -2.10689e+03 -1.63781e+03  2.51826e+00
  3320    103.499  4.68565e+02 -2.10588e+03 -1.63731e+03  2.79341e+00
  3330    102.977  4.66199e+02 -2.10327e+03 -1.63707e+03  3.23161e+00
  3340    102.209  4.62724e+02 -2.09981e+03 -1.63709e+03  3.75166e+00
  3350    101.521  4.59607e+02 -2.09645e+03 -1.63684e+03  4.23160e+00
  3360    101.108  4.57740e+02 -2.09481e+03 -1.63707e+03  4.52521e+00
  3370    100.920  4.56888e+02 -2.09416e+03 -1.63728e+03  4.66779e+00
  3380    100.905  4.56822e+02 -2.09430e+03 -1.63748e+03  4.66915e+00
  3390    101.143  4.57899e+02 -2.09547e+03 -1.63757e+03  4.49767e+00
  3400    101.726  4.60535e+02 -2.09836e+03 -1.63782e+03  4.09663e+00
  3410    102.657  4.64750e+02 -2.10293e+03 -1.63818e+03  3.47245e+00
  3420    103.848  4.70143e+02 -2.10870e+03 -1.63856e+03  2.67873e+00
  3430    105.117  4.75887e+02 -2.11511e+03 -1.63923e+03  1.79295e+00
  3440    106.223  4.80895e+02 -2.12111e+03 -1.64022e+03  9.32052e-01
  3450    106.939  4.84138e+02 -2.12561e+03 -1.64147e+03  2.14040e-01
  3460    107.109  4.84908e+02 -2.12801e+03 -1.64310e+03 -2.87050e-01
  3470    106.671  4.82925e+02 -2.12773e+03 -1.64481e+03 -5.17334e-01
  3480    105.653  4.78314e+02 -2.12519e+03 -1.64687e+03 -5.04120e-01
  3490    104.158  4.71546e+02 -2.12088e+03 -1.64933e+03 -2.99710e-01
  3500    102.367  4.63439e+02 -2.11544e+03 -1.65201e+03  1.96137e-02
  3510    100.535  4.55145e+02 -2.10984e+03 -1.65470e+03  3.43158e-01
  3520     98.959  4.48010e+02 -2.10519e+03 -1.65718e+03  5.42716e-01
  3530     97.903  4.43228e+02 -2.10298e+03 -1.65975e+03  4.78597e-01
  3540     97.475  4.41293e+02 -2.10343e+03 -1.66214e+03  1.15745e-01
  3550     97.576  4.41750e+02 -2.10602e+03 -1.66427e+03 -4.92160e-01
  3560     97.950  4.43440e+02 -2.10990e+03 -1.66646e+03 -1.24236e+00
  3570     98.318  4.45106e+02 -2.11381e+03 -1.66871e+03 -1.99950e+00
  3580     98.480  4.45842e+02 -2.11656e+03 -1.67072e+03 -2.64236e+00
  3590     98.332  4.45170e+02 -2.11786e+03 -1.67269e+03 -3.12465e+00
  3600     97.863  4.43048e+02 -2.11793e+03 -1.67489e+03 -3.44996e+00
  3610     97.160  4.39864e+02 -2.11647e+03 -1.67661e+03 -3.61228e+00
  3620     96.384  4.36352e+02 -2.11464e+03 -1.67828e+03 -3.71168e+00
  3630     95.709  4.33298e+02 -2.11319e+03 -1.67989e+03 -3.82802e+00
  3640     95.247  4.31207e+02 -2.11236e+03 -1.68116e+03 -4.00199e+00
  3650     95.038  4.30257e+02 -2.11247e+03 -1.68221e+03 -4.26551e+00
  3660     95.081  4.30455e+02 -2.11331e+03 -1.68285e+03 -4.61113e+00
  3670     95.378  4.31798e+02 -2.11550e+03 -1.68370e+03 -5.07803e+00
  3680     95.936  4.34323e+02 -2.11844e+03 -1.68412e+03 -5.62803e+00
  3690     96.751  4.38013e+02 -2.12260e+03 -1.68459e+03 -6.28089e+00
  3700     97.765  4.42604e+02 -2.12756e+03 -1.68495e+03 -6.99224e+00
  3710     98.837  4.47459e+02 -2.13247e+03 -1.68502e+03 -7.67711e+00
  3720     99.764  4.51655e+02 -2.13659e+03 -1.68494e+03 -8.24543e+00
  3730    100.338  4.54251e+02 -2.13914e+03 -1.68489e+03 -8.60719e+00
  3740    100.412  4.54589e+02 -2.13935e+03 -1.68476e+03 -8.68837e+00
  3750     99.960  4.52540e+02 -2.13745e+03 -1.68491e+03 -8.49793e+00
  3760     99.092  4.48613e+02 -2.13353e+03 -1.68491e+03 -8.06384e+00
  3770     98.037  4.43836e+02 -2.12865e+03 -1.68481e+03 -7.49595e+00
  3780     97.066  4.39438e+02 -2.12434e+03 -1.68490e+03 -6.94028e+00
  3790     96.407  4.36456e+02 -2.12091e+03 -1.68446e+03 -6.46198e+00
  3800     96.188  4.35463e+02 -2.11920e+03 -1.68374e+03 -6.13828e+00
  3810     96.403  4.36438e+02 -2.11943e+03 -1.68299e+03 -5.98475e+00
  3820     96.929  4.38819e+02 -2.12078e+03 -1.68196e+03 -5.93117e+00
  3830     97.589  4.41805e+02 -2.12269e+03 -1.68088e+03 -5.91225e+00
  3840     98.225  4.44688e+02 -2.12430e+03 -1.67961e+03 -5.84756e+00
  3850     98.738  4.47009e+02 -2.12542e+03 -1.67841e+03 -5.70756e+00
  3860     99.060  4.48465e+02 -2.12571e+03 -1.67724e+03 -5.46210e+00
  3870     99.145  4.48854e+02 -2.12478e+03 -1.67593e+03 -5.08572e+00
  3880     98.996  4.48178e+02 -2.12278e+03 -1.67460e+03 -4.59534e+00
  3890     98.665  4.46681e+02 -2.11992e+03 -1.67324e+03 -4.02186e+00
  3900     98.252  4.44809e+02 -2.11678e+03 -1.67197e+03 -3.42768e+00
  3910     97.881  4.43129e+02 -2.11326e+03 -1.67013e+03 -2.83526e+00
  3920     97.677  4.42207e+02 -2.11062e+03 -1.66841e+03 -2.35005e+00
  3930     97.717  4.42386e+02 -2.10906e+03 -1.66668e+03 -1.99977e+00
  3940     97.975  4.43555e+02 -2.10843e+03 -1.66487e+03 -1.77375e+00
  3950     98.353  4.45267e+02 -2.10837e+03 -1.66311e+03 -1.63704e+00
  3960     98.757  4.47097e+02 -2.10823e+03 -1.66114e+03 -1.53331e+00
  3970     99.149  4.48869e+02 -2.10771e+03 -1.65884e+03 -1.43822e+00
  3980     99.556  4.50713e+02 -2.10736e+03 -1.65665e+03 -1.39197e+00
  3990    100.060  4.52995e+02 -2.10730e+03 -1.65431e+03 -1.41281e+00
  4000    100.740  4.56074e+02 -2.10816e+03 -1.65209e+03 -1.55071e+00
  4010    101.624  4.60076e+02 -2.10988e+03 -1.64981e+03 -1.80073e+00
  4020    102.666  4.64791e+02 -2.11237e+03 -1.64758e+03 -2.14202e+00
  4030    103.766  4.69772e+02 -2.11556e+03 -1.64578e+03 -2.54545e+00
  4040    104.804  4.74472e+02 -2.11844e+03 -1.64396e+03 -2.91940e+00
  4050    105.656  4.78329e+02 -2.12050e+03 -1.64217e+03 -3.20539e+00
  4060    106.218  4.80874e+02 -2.12171e+03 -1.64083e+03 -3.37942e+00
  4070    106.431  4.81838e+02 -2.12142e+03 -1.63958e+03 -3.39143e+00
  4080    106.297  4.81231e+02 -2.12022e+03 -1.63899e+03 -3.27997e+00
  4090    105.883  4.79355e+02 -2.11780e+03 -1.63844e+03 -3.03984e+00
  4100    105.296  4.76700e+02 -2.11522e+03 -1.63852e+03 -2.75977e+00
  4110    104.664  4.73838e+02 -2.11217e+03 -1.63833e+03 -2.44776e+00
  4120    104.106  4.71310e+02 -2.11010e+03 -1.63879e+03 -2.21668e+00
  4130    103.701  4.69476e+02 -2.10865e+03 -1.63917e+03 -2.06133e+00
  4140    103.468  4.68424e+02 -2.10803e+03 -1.63961e+03 -2.00040e+00
  4150    103.414  4.68181e+02 -2.10848e+03 -1.64030e+03 -2.04909e+00
  4160    103.562  4.68847e+02 -2.10993e+03 -1.64108e+03 -2.20442e+00
  4170    103.894  4.70352e+02 -2.11239e+03 -1.64204e+03 -2.45867e+00
  4180    104.297  4.72174e+02 -2.11533e+03 -1.64315e+03 -2.75551e+00
  4190    104.603  4.73562e+02 -2.11825e+03 -1.64469e+03 -3.03285e+00
  4200    104.681  4.73915e+02 -2.12020e+03 -1.64629e+03 -3.20430e+00
  4210    104.436  4.72806e+02 -2.12102e+03 -1.64822e+03 -3.24437e+00
  4220    103.821  4.70022e+02 -2.12045e+03 -1.65042e+03 -3.13081e+00
  4230    102.873  4.65729e+02 -2.11832e+03 -1.65259e+03 -2.86480e+00
  4240    101.725  4.60533e+02 -2.11519e+03 -1.65465e+03 -2.50821e+00
  4250    100.551  4.55218e+02 -2.11227e+03 -1.65705e+03 -2.16939e+00
  4260     99.469  4.50319e+02 -2.10968e+03 -1.65936e+03 -1.88058e+00
  4270     98.519  4.46016e+02 -2.10796e+03 -1.66194e+03 -1.68556e+00
  4280     97.729  4.42439e+02 -2.10673e+03 -1.66429e+03 -1.56734e+00
  4290     97.142  4.39784e+02 -2.10612e+03 -1.66634e+03 -1.53777e+00
  4300     96.753  4.38024e+02 -2.10666e+03 -1.66863e+03 -1.62440e+00
  4310     96.519  4.36961e+02 -2.10739e+03 -1.67043e+03 -1.75941e+00
  4320     96.449  4.36648e+02 -2.10892e+03 -1.67227e+03 -1.97679e+00
  4330     96.636  4.37495e+02 -2.11147e+03 -1.67397e+03 -2.30008e+00
  4340     97.151  4.39824e+02 -2.11542e+03 -1.67559e+03 -2.75757e+00
  4350     97.930  4.43351e+02 -2.12004e+03 -1.67669e+03 -3.28993e+00
  4360     98.781  4.47204e+02 -2.12515e+03 -1.67795e+03 -3.84792e+00
  4370     99.475  4.50345e+02 -2.12972e+03 -1.67937e+03 -4.32646e+00
  4380     99.840  4.51997e+02 -2.13223e+03 -1.68023e+03 -4.60160e+00
  4390     99.792  4.51780e+02 -2.13292e+03 -1.68114e+03 -4.67399e+00
  4400     99.324  4.49663e+02 -2.13206e+03 -1.68239e+03 -4.56341e+00
  4410     98.505  4.45953e+02 -2.12943e+03 -1.68348e+03 -4.27861e+00
  4420     97.508  4.41439e+02 -2.12615e+03 -1.68471e+03 -3.92866e+00
  4430     96.630  4.37465e+02 -2.12284e+03 -1.68538e+03 -3.61485e+00
  4440     96.198  4.35509e+02 -2.12176e+03 -1.68625e+03 -3.53882e+00
  4450     96.394  4.36397e+02 -2.12301e+03 -1.68661e+03 -3.74200e+00
  4460     97.149  4.39817e+02 -2.12663e+03 -1.68681e+03 -4.21462e+00
  4470     98.198  4.44565e+02 -2.13164e+03 -1.68708e+03 -4.84615e+00
  4480     99.236  4.49263e+02 -2.13638e+03 -1.68711e+03 -5.47455e+00
  4490    100.059  4.52991e+02 -2.13988e+03 -1.68689e+03 -5.99643e+00
  4500    100.619  4.55526e+02 -2.14235e+03 -1.68683e+03 -6.40431e+00
  4510    100.970  4.57112e+02 -2.14388e+03 -1.68677e+03 -6.70375e+00
  4520    101.189  4.58103e+02 -2.14531e+03 -1.68721e+03 -6.95398e+00
  4530    101.334  4.58762e+02 -2.14594e+03 -1.68718e+03 -7.11512e+00
  4540    101.416  4.59131e+02 -2.14642e+03 -1.68729e+03 -7.22409e+00
  4550    101.386  4.58999e+02 -2.14648e+03 -1.68748e+03 -7.25207e+00
  4560    101.150  4.57929e+02 -2.14582e+03 -1.68789e+03 -7.16212e+00
  4570    100.612  4.55493e+02 -2.14375e+03 -1.68826e+03 -6.89629e+00
  4580     99.744  4.51562e+02 -2.14050e+03 -1.68893e+03 -6.46473e+00
  4590     98.616  4.46458e+02 -2.13572e+03 -1.68927e+03 -5.86543e+00
  4600     97.393  4.40920e+02 -2.13071e+03 -1.68979e+03 -5.21178e+00
  4610     96.286  4.35911e+02 -2.12573e+03 -1.68982e+03 -4.56697e+00
  4620     95.506  4.32379e+02 -2.12245e+03 -1.69008e+03 -4.07538e+00
  4630     95.193  4.30961e+02 -2.12097e+03 -1.69001e+03 -3.77348e+00
  4640     95.369  4.31758e+02 -2.12142e+03 -1.68966e+03 -3.67567e+00
  4650     95.927  4.34285e+02 -2.12327e+03 -1.68898e+03 -3.73131e+00
  4660     96.673  4.37659e+02 -2.12590e+03 -1.68824e+03 -3.86672e+00
  4670     97.401  4.40955e+02 -2.12803e+03 -1.68708e+03 -3.96588e+00
  4680     97.965  4.43509e+02 -2.12975e+03 -1.68624e+03 -4.00595e+00
  4690     98.293  4.44993e+02 -2.12990e+03 -1.68491e+03 -3.90653e+00
  4700     98.369  4.45339e+02 -2.12892e+03 -1.68358e+03 -3.69609e+00
  4710     98.268  4.44881e+02 -2.12742e+03 -1.68254e+03 -3.43467e+00
  4720     98.220  4.44662e+02 -2.12610e+03 -1.68144e+03 -3.21172e+00
  4730     98.528  4.46057e+02 -2.12596e+03 -1.67991e+03 -3.14420e+00
  4740     99.326  4.49671e+02 -2.12840e+03 -1.67873e+03 -3.34009e+00
  4750    100.464  4.54825e+02 -2.13198e+03 -1.67715e+03 -3.68756e+00
  4760    101.657  4.60223e+02 -2.13599e+03 -1.67576e+03 -4.09095e+00
  4770    102.669  4.64804e+02 -2.13883e+03 -1.67402e+03 -4.40645e+00
  4780    103.387  4.68056e+02 -2.14053e+03 -1.67247e+03 -4.60864e+00
  4790    103.808  4.69964e+02 -2.14109e+03 -1.67112e+03 -4.69099e+00
  4800    103.998  4.70820e+02 -2.14075e+03 -1.66993e+03 -4.67561e+00
  4810    104.044  4.71030e+02 -2.14011e+03 -1.66908e+03 -4.61302e+00
  4820    104.020  4.70924e+02 -2.13903e+03 -1.66811e+03 -4.50818e+00
  4830    103.954  4.70623e+02 -2.13813e+03 -1.66750e+03 -4.40341e+00
  4840    103.815  4.69993e+02 -2.13710e+03 -1.66710e+03 -4.27555e+00
  4850    103.533  4.68718e+02 -2.13578e+03 -1.66706e+03 -4.10358e+00
  4860    103.047  4.66516e+02 -2.13367e+03 -1.66715e+03 -3.84770e+00
  4870    102.346  4.63345e+02 -2.13085e+03 -1.66751e+03 -3.51180e+00
  4880    101.487  4.59453e+02 -2.12705e+03 -1.66760e+03 -3.09056e+00
  4890    100.572  4.55311e+02 -2.12345e+03 -1.66814e+03 -2.67592e+00
  4900     99.728  4.51493e+02 -2.11986e+03 -1.66837e+03 -2.28031e+00
  4910     99.063  4.48479e+02 -2.11705e+03 -1.66857e+03 -1.96880e+00
  4920     98.616  4.46457e+02 -2.11524e+03 -1.66878e+03 -1.76320e+00
  4930     98.330  4.45163e+02 -2.11411e+03 -1.66894e+03 -1.63332e+00
  4940     98.074  4.44001e+02 -2.11311e+03 -1.66911e+03 -1.52368e+00
  4950     97.738  4.42481e+02 -2.11167e+03 -1.66919e+03 -1.38144e+00
  4960     97.316  4.40569e+02 -2.10993e+03 -1.66936e+03 -1.21615e+00
  4970     96.881  4.38603e+02 -2.10765e+03 -1.66905e+03 -1.02879e+00
  4980     96.536  4.37042e+02 -2.10556e+03 -1.66852e+03 -8.85084e-01
  4990     96.381  4.36339e+02 -2.10437e+03 -1.66803e+03 -8.48989e-01
  5000     96.480  4.36789e+02 -2.10430e+03 -1.66751e+03 -9.44789e-01
  5010     96.819  4.38324e+02 -2.10483e+03 -1.66651e+03 -1.13779e+00
  5020     97.323  4.40603e+02 -2.10604e+03 -1.66544e+03 -1.41736e+00
  5030     97.939  4.43390e+02 -2.10757e+03 -1.66418e+03 -1.74835e+00
  5040     98.670  4.46699e+02 -2.10992e+03 -1.66322e+03 -2.15466e+00
  5050     99.513  4.50516e+02 -2.11235e+03 -1.66183e+03 -2.58234e+00
  5060    100.403  4.54547e+02 -2.11499e+03 -1.66044e+03 -3.02213e+00
  5070    101.237  4.58322e+02 -2.11758e+03 -1.65925e+03 -3.43373e+00
  5080    101.946  4.61533e+02 -2.11958e+03 -1.65805e+03 -3.76676e+00
  5090    102.531  4.64183e+02 -2.12104e+03 -1.65686e+03 -4.01762e+00
  5100    103.006  4.66330e+02 -2.12213e+03 -1.65580e+03 -4.19478e+00
  5110    103.316  4.67733e+02 -2.12291e+03 -1.65517e+03 -4.29283e+00
  5120    103.355  4.67911e+02 -2.12238e+03 -1.65447e+03 -4.23899e+00
  5130    103.066  4.66603e+02 -2.12041e+03 -1.65380e+03 -4.02163e+00
  5140    102.500  4.64042e+02 -2.11696e+03 -1.65291e+03 -3.65700e+00
  5150    101.809  4.60913e+02 -2.11337e+03 -1.65246e+03 -3.26215e+00
  5160    101.180  4.58066e+02 -2.11025e+03 -1.65219e+03 -2.91336e+00
  5170    100.730  4.56027e+02 -2.10797e+03 -1.65194e+03 -2.66141e+00
  5180    100.442  4.54722e+02 -2.10648e+03 -1.65176e+03 -2.50767e+00
  5190    100.213  4.53686e+02 -2.10543e+03 -1.65174e+03 -2.41870e+00
  5200     99.949  4.52490e+02 -2.10403e+03 -1.65154e+03 -2.33213e+00
  5210     99.631  4.51050e+02 -2.10253e+03 -1.65148e+03 -2.26167e+00
  5220     99.330  4.49687e+02 -2.10114e+03 -1.65145e+03 -2.23001e+00
  5230     99.179  4.49005e+02 -2.10017e+03 -1.65116e+03 -2.27662e+00
  5240     99.297  4.49538e+02 -2.10033e+03 -1.65080e+03 -2.45947e+00
  5250     99.698  4.51356e+02 -2.10189e+03 -1.65054e+03 -2.78900e+00
  5260    100.272  4.53952e+02 -2.10429e+03 -1.65034e+03 -3.20374e+00
  5270    100.849  4.56568e+02 -2.10647e+03 -1.64990e+03 -3.59985e+00
  5280    101.299  4.58602e+02 -2.10812e+03 -1.64952e+03 -3.92525e+00
  5290    101.575  4.59854e+02 -2.10923e+03 -1.64937e+03 -4.16124e+00
  5300    101.706  4.60446e+02 -2.10944e+03 -1.64899e+03 -4.28388e+00
  5310    101.730  4.60555e+02 -2.10948e+03 -1.64892e+03 -4.33975e+00
  5320    101.644  4.60165e+02 -2.10900e+03 -1.64883e+03 -4.30634e+00
  5330    101.423  4.59166e+02 -2.10797e+03 -1.64881e+03 -4.18154e+00
  5340    101.074  4.57586e+02 -2.10670e+03 -1.64911e+03 -3.98708e+00
  5350    100.607  4.55469e+02 -2.10474e+03 -1.64927e+03 -3.70423e+00
  5360     99.978  4.52623e+02 -2.10222e+03 -1.64960e+03 -3.34082e+00
  5370     99.139  4.48826e+02 -2.09846e+03 -1.64964e+03 -2.85769e+00
  5380     98.136  4.44283e+02 -2.09394e+03 -1.64965e+03 -2.30274e+00
  5390     97.154  4.39838e+02 -2.08950e+03 -1.64966e+03 -1.77010e+00
  5400     96.455  4.36675e+02 -2.08631e+03 -1.64964e+03 -1.38361e+00
  5410     96.253  4.35758e+02 -2.08492e+03 -1.64916e+03 -1.21512e+00
  5420     96.589  4.37280e+02 -2.08606e+03 -1.64878e+03 -1.31795e+00
  5430     97.345  4.40702e+02 -2.08878e+03 -1.64808e+03 -1.60935e+00
  5440     98.349  4.45246e+02 -2.09252e+03 -1.64728e+03 -2.01525e+00
  5450     99.447  4.50219e+02 -2.09669e+03 -1.64647e+03 -2.45983e+00
  5460    100.492  4.54949e+02 -2.10051e+03 -1.64556e+03 -2.85893e+00
  5470    101.327  4.58728e+02 -2.10371e+03 -1.64499e+03 -3.16089e+00
  5480    101.826  4.60989e+02 -2.10529e+03 -1.64430e+03 -3.27961e+00
  5490    101.946  4.61534e+02 -2.10526e+03 -1.64373e+03 -3.21152e+00
  5500    101.745  4.60621e+02 -2.10372e+03 -1.64310e+03 -2.97741e+00
  5510    101.370  4.58925e+02 -2.10150e+03 -1.64257e+03 -2.66268e+00
  5520    101.049  4.57472e+02 -2.09953e+03 -1.64206e+03 -2.37225e+00
  5530    100.991  4.57209e+02 -2.09883e+03 -1.64162e+03 -2.20943e+00
  5540    101.259  4.58422e+02 -2.09942e+03 -1.64100e+03 -2.19245e+00
  5550    101.740  4.60599e+02 -2.10135e+03 -1.64075e+03 -2.30837e+00
  5560    102.241  4.62870e+02 -2.10311e+03 -1.64024e+03 -2.43323e+00
  5570    102.609  4.64535e+02 -2.10444e+03 -1.63990e+03 -2.52363e+00
  5580    102.799  4.65394e+02 -2.10533e+03 -1.63994e+03 -2.57002e+00
  5590    102.894  4.65822e+02 -2.10611e+03 -1.64029e+03 -2.60163e+00
  5600    103.028  4.66431e+02 -2.10673e+03 -1.64030e+03 -2.63698e+00
  5610    103.284  4.67589e+02 -2.10821e+03 -1.64062e+03 -2.74855e+00
  5620    103.630  4.69158e+02 -2.11030e+03 -1.64115e+03 -2.91650e+00
  5630    103.970  4.70694e+02 -2.11269e+03 -1.64200e+03 -3.10409e+00
  5640    104.232  4.71883e+02 -2.11464e+03 -1.64276e+03 -3.25012e+00
  5650    104.399  4.72640e+02 -2.11623e+03 -1.64359e+03 -3.35206e+00
  5660    104.456  4.72896e+02 -2.11773e+03 -1.64483e+03 -3.41784e+00
  5670    104.328  4.72314e+02 -2.11893e+03 -1.64662e+03 -3.42032e+00
  5680    103.905  4.70400e+02 -2.11850e+03 -1.64810e+03 -3.25922e+00
  5690    103.136  4.66921e+02 -2.11699e+03 -1.65007e+03 -2.96455e+00
  5700    102.104  4.62249e+02 -2.11427e+03 -1.65202e+03 -2.54702e+00
  5710    100.999  4.57244e+02 -2.11113e+03 -1.65388e+03 -2.09405e+00
  5720    100.031  4.52862e+02 -2.10883e+03 -1.65597e+03 -1.72783e+00
  5730     99.362  4.49832e+02 -2.10783e+03 -1.65800e+03 -1.51042e+00
  5740     99.066  4.48493e+02 -2.10846e+03 -1.65996e+03 -1.48048e+00
  5750     99.135  4.48804e+02 -2.11069e+03 -1.66188e+03 -1.63467e+00
  5760     99.473  4.50337e+02 -2.11420e+03 -1.66386e+03 -1.93284e+00
  5770     99.914  4.52332e+02 -2.11806e+03 -1.66573e+03 -2.28145e+00
  5780    100.257  4.53886e+02 -2.12172e+03 -1.66783e+03 -2.60595e+00
  5790    100.352  4.54314e+02 -2.12384e+03 -1.66952e+03 -2.79158e+00
  5800    100.165  4.53468e+02 -2.12501e+03 -1.67154e+03 -2.86288e+00
  5810     99.791  4.51778e+02 -2.12536e+03 -1.67358e+03 -2.83837e+00
  5820     99.385  4.49939e+02 -2.12528e+03 -1.67534e+03 -2.76523e+00
  5830     99.065  4.48488e+02 -2.12575e+03 -1.67726e+03 -2.72141e+00
  5840     98.865  4.47583e+02 -2.12663e+03 -1.67905e+03 -2.70293e+00
  5850     98.745  4.47043e+02 -2.12774e+03 -1.68070e+03 -2.69028e+00
  5860     98.618  4.46466e+02 -2.12862e+03 -1.68215e+03 -2.63954e+00
  5870     98.378  4.45378e+02 -2.12917e+03 -1.68379e+03 -2.52933e+00
  5880     97.950  4.43443e+02 -2.12869e+03 -1.68525e+03 -2.30931e+00
  5890     97.355  4.40747e+02 -2.12757e+03 -1.68682e+03 -2.01387e+00
  5900     96.712  4.37838e+02 -2.12581e+03 -1.68797e+03 -1.67187e+00
  5910     96.179  4.35424e+02 -2.12418e+03 -1.68876e+03 -1.36621e+00
  5920     95.849  4.33931e+02 -2.12357e+03 -1.68964e+03 -1.17507e+00
  5930     95.731  4.33394e+02 -2.12390e+03 -1.69051e+03 -1.10520e+00
  5940     95.808  4.33742e+02 -2.12463e+03 -1.69089e+03 -1.12200e+00
  5950     96.056  4.34866e+02 -2.12640e+03 -1.69153e+03 -1.25772e+00
  5960     96.417  4.36501e+02 -2.12834e+03 -1.69184e+03 -1.44302e+00
  5970     96.789  4.38184e+02 -2.12970e+03 -1.69152e+03 -1.60548e+00
  5980     97.056  4.39396e+02 -2.13104e+03 -1.69164e+03 -1.74983e+00
  5990     97.135  4.39754e+02 -2.13110e+03 -1.69135e+03 -1.77853e+00
  6000     96.989  4.39093e+02 -2.12985e+03 -1.69076e+03 -1.67920e+00
  6010     96.631  4.37470e+02 -2.12751e+03 -1.69004e+03 -1.46727e+00
  6020     96.122  4.35164e+02 -2.12441e+03 -1.68925e+03 -1.17828e+00
  6030     95.579  4.32708e+02 -2.12099e+03 -1.68829e+03 -8.64149e-01
  6040     95.160  4.30809e+02 -2.11796e+03 -1.68716e+03 -6.00560e-01
  6050     95.012  4.30142e+02 -2.11620e+03 -1.68606e+03 -4.69932e-01
  6060     95.214  4.31054e+02 -2.11566e+03 -1.68460e+03 -4.83762e-01
  6070     95.742  4.33446e+02 -2.11652e+03 -1.68307e+03 -6.48923e-01
  6080     96.511  4.36929e+02 -2.11835e+03 -1.68142e+03 -9.21388e-01
  6090     97.435  4.41112e+02 -2.12065e+03 -1.67954e+03 -1.24979e+00
  6100     98.460  4.45752e+02 -2.12311e+03 -1.67736e+03 -1.59935e+00
  6110     99.561  4.50734e+02 -2.12580e+03 -1.67506e+03 -1.96181e+00
  6120    100.704  4.55908e+02 -2.12885e+03 -1.67294e+03 -2.33170e+00
  6130    101.804  4.60890e+02 -2.13126e+03 -1.67037e+03 -2.62574e+00
  6140    102.704  4.64964e+02 -2.13323e+03 -1.66827e+03 -2.82371e+00
  6150    103.223  4.67313e+02 -2.13353e+03 -1.66622e+03 -2.81956e+00
  6160    103.250  4.67435e+02 -2.13179e+03 -1.66436e+03 -2.57298e+00
  6170    102.833  4.65549e+02 -2.12785e+03 -1.66230e+03 -2.08917e+00
  6180    102.206  4.62710e+02 -2.12337e+03 -1.66066e+03 -1.51584e+00
  6190    101.622  4.60063e+02 -2.11915e+03 -1.65909e+03 -9.53026e-01
  6200    101.158  4.57965e+02 -2.11558e+03 -1.65761e+03 -4.50311e-01
  6210    100.792  4.56309e+02 -2.11251e+03 -1.65620e+03 -7.66729e-03
  6220    100.582  4.55357e+02 -2.11013e+03 -1.65478e+03  3.46340e-01
  6230    100.649  4.55660e+02 -2.10896e+03 -1.65330e+03  5.59814e-01
  6240    101.042  4.57438e+02 -2.10937e+03 -1.65193e+03  6.05401e-01
  6250    101.646  4.60175e+02 -2.11071e+03 -1.65053e+03  5.45407e-01
  6260    102.258  4.62943e+02 -2.11207e+03 -1.64912e+03  4.75751e-01
  6270    102.717  4.65021e+02 -2.11315e+03 -1.64813e+03  4.47997e-01
  6280    102.969  4.66162e+02 -2.11327e+03 -1.64710e+03  5.19752e-01
  6290    103.028  4.66433e+02 -2.11275e+03 -1.64632e+03  6.73178e-01
  6300    102.924  4.65958e+02 -2.11138e+03 -1.64542e+03  9.17949e-01
  6310    102.664  4.64785e+02 -2.10977e+03 -1.64498e+03  1.21367e+00
  6320    102.243  4.62875e+02 -2.10710e+03 -1.64422e+03  1.60742e+00
  6330    101.668  4.60272e+02 -2.10396e+03 -1.64369e+03  2.05587e+00
  6340    101.008  4.57287e+02 -2.10063e+03 -1.64334e+03  2.52406e+00
  6350    100.377  4.54430e+02 -2.09746e+03 -1.64303e+03  2.96573e+00
  6360     99.888  4.52216e+02 -2.09490e+03 -1.64268e+03  3.32742e+00
  6370     99.620  4.51004e+02 -2.09322e+03 -1.64221e+03  3.57548e+00
  6380     99.608  4.50947e+02 -2.09285e+03 -1.64190e+03  3.67236e+00
  6390     99.856  4.52072e+02 -2.09358e+03 -1.64151e+03  3.62990e+00
  6400    100.337  4.54248e+02 -2.09562e+03 -1.64137e+03  3.44429e+00
  6410    100.968  4.57104e+02 -2.09794e+03 -1.64084e+03  3.19601e+00
  6420    101.636  4.60130e+02 -2.10049e+03 -1.64036e+03  2.91520e+00
  6430    102.232  4.62828e+02 -2.10273e+03 -1.63990e+03  2.66096e+00
  6440    102.677  4.64844e+02 -2.10459e+03 -1.63975e+03  2.45713e+00
  6450    102.910  4.65898e+02 -2.10588e+03 -1.63998e+03  2.33334e+00
  6460    102.870  4.65716e+02 -2.10576e+03 -1.64004e+03  2.35200e+00
  6470    102.517  4.64118e+02 -2.10471e+03 -1.64060e+03  2.48617e+00
  6480    101.882  4.61244e+02 -2.10188e+03 -1.64063e+03  2.77512e+00
  6490    101.090  4.57656e+02 -2.09851e+03 -1.64085e+03  3.10830e+00
  6500    100.343  4.54274e+02 -2.09549e+03 -1.64121e+03  3.38512e+00
  6510     99.854  4.52063e+02 -2.09350e+03 -1.64144e+03  3.51596e+00
  6520     99.776  4.51707e+02 -2.09381e+03 -1.64210e+03  3.39055e+00
  6530    100.150  4.53400e+02 -2.09587e+03 -1.64247e+03  3.03200e+00
  6540    100.896  4.56778e+02 -2.09985e+03 -1.64307e+03  2.44818e+00
  6550    101.853  4.61111e+02 -2.10474e+03 -1.64362e+03  1.73597e+00
  6560    102.871  4.65720e+02 -2.10985e+03 -1.64413e+03  9.75682e-01
  6570    103.869  4.70240e+02 -2.11505e+03 -1.64481e+03  2.04987e-01
  6580    104.790  4.74410e+02 -2.12018e+03 -1.64577e+03 -5.41136e-01
  6590    105.529  4.77752e+02 -2.12466e+03 -1.64691e+03 -1.19512e+00
  6600    105.938  4.79607e+02 -2.12779e+03 -1.64819e+03 -1.68049e+00
  6610    105.899  4.79427e+02 -2.12945e+03 -1.65003e+03 -1.96218e+00
  6620    105.359  4.76986e+02 -2.12892e+03 -1.65194e+03 -1.98497e+00
  6630    104.346  4.72400e+02 -2.12634e+03 -1.65394e+03 -1.76492e+00
  6640    102.951  4.66084e+02 -2.12247e+03 -1.65638e+03 -1.37168e+00
  6650    101.307  4.58639e+02 -2.11746e+03 -1.65882e+03 -8.49822e-01
  6660     99.560  4.50730e+02 -2.11224e+03 -1.66151e+03 -2.95746e-01
  6670     97.877  4.43113e+02 -2.10725e+03 -1.66413e+03  2.19940e-01
  6680     96.505  4.36900e+02 -2.10318e+03 -1.66628e+03  6.02478e-01
  6690     95.717  4.33333e+02 -2.10147e+03 -1.66813e+03  7.17148e-01
  6700     95.564  4.32640e+02 -2.10261e+03 -1.66997e+03  5.29003e-01
  6710     95.776  4.33600e+02 -2.10529e+03 -1.67169e+03  1.72356e-01
  6720     96.028  4.34742e+02 -2.10775e+03 -1.67301e+03 -1.79027e-01
  6730     96.147  4.35280e+02 -2.10967e+03 -1.67439e+03 -4.63741e-01
  6740     96.071  4.34936e+02 -2.11080e+03 -1.67587e+03 -6.46970e-01
  6750     95.780  4.33617e+02 -2.11036e+03 -1.67674e+03 -6.75291e-01
  6760     95.305  4.31468e+02 -2.10879e+03 -1.67732e+03 -5.85960e-01
  6770     94.781  4.29097e+02 -2.10715e+03 -1.67805e+03 -4.72081e-01
  6780     94.432  4.27516e+02 -2.10575e+03 -1.67824e+03 -3.95429e-01
  6790     94.452  4.27603e+02 -2.10600e+03 -1.67840e+03 -4.78260e-01
  6800     94.858  4.29445e+02 -2.10791e+03 -1.67846e+03 -7.28323e-01
  6810     95.492  4.32313e+02 -2.11023e+03 -1.67792e+03 -1.04706e+00
  6820     96.152  4.35300e+02 -2.11276e+03 -1.67746e+03 -1.39058e+00
  6830     96.731  4.37922e+02 -2.11446e+03 -1.67654e+03 -1.68046e+00
  6840     97.247  4.40259e+02 -2.11580e+03 -1.67554e+03 -1.95046e+00
  6850     97.811  4.42812e+02 -2.11729e+03 -1.67448e+03 -2.25118e+00
  6860     98.560  4.46201e+02 -2.11959e+03 -1.67339e+03 -2.64675e+00
  6870     99.583  4.50835e+02 -2.12317e+03 -1.67234e+03 -3.17956e+00
  6880    100.856  4.56597e+02 -2.12751e+03 -1.67092e+03 -3.80869e+00
  6890    102.241  4.62867e+02 -2.13246e+03 -1.66959e+03 -4.49618e+00
  6900    103.575  4.68905e+02 -2.13721e+03 -1.66831e+03 -5.15793e+00
  6910    104.746  4.74207e+02 -2.14164e+03 -1.66744e+03 -5.75787e+00
  6920    105.702  4.78537e+02 -2.14505e+03 -1.66651e+03 -6.23401e+00
  6930    106.398  4.81686e+02 -2.14828e+03 -1.66660e+03 -6.62296e+00
  6940    106.767  4.83359e+02 -2.15010e+03 -1.66674e+03 -6.83299e+00
  6950    106.738  4.83229e+02 -2.15021e+03 -1.66698e+03 -6.83368e+00
  6960    106.273  4.81121e+02 -2.14834e+03 -1.66722e+03 -6.60615e+00
  6970    105.416  4.77244e+02 -2.14502e+03 -1.66777e+03 -6.19710e+00
  6980    104.311  4.72239e+02 -2.14115e+03 -1.66891e+03 -5.69616e+00
  6990    103.169  4.67068e+02 -2.13695e+03 -1.66988e+03 -5.16160e+00
  7000    102.194  4.62654e+02 -2.13377e+03 -1.67111e+03 -4.72045e+00
  7010    101.477  4.59408e+02 -2.13187e+03 -1.67246e+03 -4.40794e+00
  7020    100.937  4.56964e+02 -2.13113e+03 -1.67416e+03 -4.20729e+00
  7030    100.401  4.54536e+02 -2.13033e+03 -1.67580e+03 -4.01706e+00
  7040     99.738  4.51537e+02 -2.12877e+03 -1.67723e+03 -3.77191e+00
  7050     98.943  4.47939e+02 -2.12664e+03 -1.67870e+03 -3.48372e+00
  7060     98.130  4.44258e+02 -2.12415e+03 -1.67989e+03 -3.18548e+00
  7070     97.462  4.41232e+02 -2.12229e+03 -1.68106e+03 -2.97048e+00
  7080     97.070  4.39457e+02 -2.12162e+03 -1.68217e+03 -2.89763e+00
  7090     97.000  4.39139e+02 -2.12210e+03 -1.68296e+03 -2.97131e+00
  7100     97.209  4.40085e+02 -2.12395e+03 -1.68386e+03 -3.19320e+00
  7110     97.589  4.41809e+02 -2.12647e+03 -1.68466e+03 -3.49167e+00
  7120     97.990  4.43623e+02 -2.12887e+03 -1.68525e+03 -3.77852e+00
  7130     98.252  4.44809e+02 -2.13041e+03 -1.68560e+03 -3.96663e+00
  7140     98.259  4.44840e+02 -2.13102e+03 -1.68618e+03 -4.01721e+00
  7150     97.950  4.43444e+02 -2.12986e+03 -1.68641e+03 -3.85794e+00
  7160     97.318  4.40583e+02 -2.12717e+03 -1.68659e+03 -3.49634e+00
  7170     96.407  4.36455e+02 -2.12305e+03 -1.68660e+03 -2.94482e+00
  7180     95.318  4.31527e+02 -2.11833e+03 -1.68680e+03 -2.27746e+00
  7190     94.206  4.26493e+02 -2.11288e+03 -1.68638e+03 -1.52125e+00
  7200     93.224  4.22045e+02 -2.10796e+03 -1.68592e+03 -7.92258e-01
  7210     92.484  4.18697e+02 -2.10413e+03 -1.68543e+03 -1.55078e-01
  7220     92.057  4.16761e+02 -2.10121e+03 -1.68445e+03  3.76736e-01
  7230     91.988  4.16452e+02 -2.09939e+03 -1.68294e+03  7.76935e-01
  7240     92.307  4.17892e+02 -2.09923e+03 -1.68133e+03  1.00338e+00
  7250     93.013  4.21089e+02 -2.10040e+03 -1.67931e+03  1.07645e+00
  7260     94.083  4.25934e+02 -2.10256e+03 -1.67663e+03  1.02849e+00
  7270     95.456  4.32150e+02 -2.10587e+03 -1.67372e+03  8.69463e-01
  7280     97.006  4.39168e+02 -2.10993e+03 -1.67077e+03  6.54422e-01
  7290     98.531  4.46074e+02 -2.11409e+03 -1.66801e+03  4.67639e-01
  7300     99.801  4.51823e+02 -2.11658e+03 -1.66476e+03  4.59087e-01
  7310    100.644  4.55638e+02 -2.11702e+03 -1.66138e+03  6.84568e-01
  7320    100.996  4.57234e+02 -2.11516e+03 -1.65792e+03  1.16589e+00
  7330    100.913  4.56858e+02 -2.11162e+03 -1.65476e+03  1.84915e+00
  7340    100.536  4.55151e+02 -2.10672e+03 -1.65157e+03  2.68238e+00
  7350    100.045  4.52927e+02 -2.10145e+03 -1.64853e+03  3.56129e+00
  7360     99.627  4.51035e+02 -2.09643e+03 -1.64540e+03  4.40510e+00
  7370     99.446  4.50212e+02 -2.09261e+03 -1.64240e+03  5.11677e+00
  7380     99.605  4.50934e+02 -2.09004e+03 -1.63911e+03  5.66635e+00
  7390    100.120  4.53266e+02 -2.08918e+03 -1.63591e+03  6.01874e+00
  7400    100.910  4.56840e+02 -2.08980e+03 -1.63296e+03  6.19716e+00
  7410    101.842  4.61062e+02 -2.09079e+03 -1.62973e+03  6.29032e+00
  7420    102.798  4.65389e+02 -2.09172e+03 -1.62633e+03  6.34557e+00
  7430    103.708  4.69508e+02 -2.09299e+03 -1.62348e+03  6.35071e+00
  7440    104.544  4.73294e+02 -2.09404e+03 -1.62075e+03  6.34305e+00
  7450    105.292  4.76679e+02 -2.09490e+03 -1.61822e+03  6.32320e+00
  7460    105.945  4.79636e+02 -2.09553e+03 -1.61589e+03  6.29230e+00
  7470    106.557  4.82406e+02 -2.09609e+03 -1.61368e+03  6.23002e+00
  7480    107.243  4.85513e+02 -2.09713e+03 -1.61162e+03  6.08729e+00
  7490    108.075  4.89279e+02 -2.09935e+03 -1.61007e+03  5.81463e+00
  7500    108.946  4.93224e+02 -2.10208e+03 -1.60886e+03  5.47472e+00
  7510    109.580  4.96093e+02 -2.10407e+03 -1.60798e+03  5.19517e+00
  7520    109.695  4.96616e+02 -2.10436e+03 -1.60774e+03  5.08278e+00
  7530    109.189  4.94324e+02 -2.10210e+03 -1.60778e+03  5.20670e+00
  7540    108.187  4.89789e+02 -2.09813e+03 -1.60834e+03  5.49515e+00
  7550    106.969  4.84273e+02 -2.09320e+03 -1.60892e+03  5.85275e+00
  7560    105.845  4.79186e+02 -2.08962e+03 -1.61043e+03  6.08404e+00
  7570    105.042  4.75550e+02 -2.08754e+03 -1.61199e+03  6.14156e+00
  7580    104.615  4.73615e+02 -2.08736e+03 -1.61375e+03  5.99027e+00
  7590    104.452  4.72880e+02 -2.08860e+03 -1.61572e+03  5.68196e+00
  7600    104.361  4.72466e+02 -2.09038e+03 -1.61791e+03  5.30631e+00
  7610    104.175  4.71625e+02 -2.09189e+03 -1.62027e+03  4.94676e+00
  7620    103.812  4.69978e+02 -2.09287e+03 -1.62289e+03  4.64116e+00
  7630    103.254  4.67456e+02 -2.09308e+03 -1.62563e+03  4.41032e+00
  7640    102.544  4.64238e+02 -2.09290e+03 -1.62866e+03  4.22939e+00
  7650    101.766  4.60719e+02 -2.09284e+03 -1.63212e+03  4.05204e+00
  7660    101.029  4.57381e+02 -2.09256e+03 -1.63518e+03  3.88057e+00
  7670    100.433  4.54681e+02 -2.09282e+03 -1.63814e+03  3.64940e+00
  7680    100.054  4.52967e+02 -2.09417e+03 -1.64120e+03  3.30989e+00
  7690     99.937  4.52438e+02 -2.09683e+03 -1.64440e+03  2.84019e+00
  7700    100.069  4.53033e+02 -2.10068e+03 -1.64765e+03  2.25321e+00
  7710    100.374  4.54416e+02 -2.10469e+03 -1.65028e+03  1.62632e+00
  7720    100.757  4.56151e+02 -2.10959e+03 -1.65344e+03  9.36212e-01
  7730    101.137  4.57868e+02 -2.11461e+03 -1.65674e+03  2.45785e-01
  7740    101.451  4.59293e+02 -2.11927e+03 -1.65998e+03 -4.02760e-01
  7750    101.651  4.60199e+02 -2.12327e+03 -1.66307e+03 -9.81124e-01
  7760    101.708  4.60457e+02 -2.12691e+03 -1.66645e+03 -1.50512e+00
  7770    101.627  4.60089e+02 -2.13006e+03 -1.66997e+03 -1.96727e+00
  7780    101.423  4.59165e+02 -2.13274e+03 -1.67358e+03 -2.37156e+00
  7790    101.097  4.57689e+02 -2.13472e+03 -1.67703e+03 -2.70369e+00
  7800    100.646  4.55648e+02 -2.13627e+03 -1.68062e+03 -2.97763e+00
  7810    100.089  4.53124e+02 -2.13738e+03 -1.68425e+03 -3.19427e+00
  7820     99.463  4.50289e+02 -2.13838e+03 -1.68809e+03 -3.37866e+00
  7830     98.801  4.47293e+02 -2.13880e+03 -1.69151e+03 -3.50657e+00
  7840     98.129  4.44252e+02 -2.13924e+03 -1.69499e+03 -3.61880e+00
  7850     97.510  4.41451e+02 -2.13979e+03 -1.69834e+03 -3.73130e+00
  7860     97.031  4.39279e+02 -2.14074e+03 -1.70146e+03 -3.87324e+00
  7870     96.698  4.37773e+02 -2.14228e+03 -1.70451e+03 -4.05550e+00
  7880     96.395  4.36402e+02 -2.14367e+03 -1.70727e+03 -4.21060e+00
  7890     95.963  4.34448e+02 -2.14448e+03 -1.71003e+03 -4.28528e+00
  7900     95.301  4.31448e+02 -2.14413e+03 -1.71268e+03 -4.22681e+00
  7910     94.400  4.27370e+02 -2.14221e+03 -1.71484e+03 -4.01079e+00
  7920     93.328  4.22515e+02 -2.13921e+03 -1.71669e+03 -3.68323e+00
  7930     92.203  4.17423e+02 -2.13594e+03 -1.71852e+03 -3.32326e+00
  7940     91.200  4.12881e+02 -2.13262e+03 -1.71974e+03 -2.98245e+00
  7950     90.542  4.09904e+02 -2.13052e+03 -1.72062e+03 -2.78369e+00
  7960     90.442  4.09449e+02 -2.13068e+03 -1.72123e+03 -2.82633e+00
  7970     90.981  4.11893e+02 -2.13328e+03 -1.72138e+03 -3.13165e+00
  7980     92.023  4.16610e+02 -2.13764e+03 -1.72103e+03 -3.62856e+00
  7990     93.270  4.22255e+02 -2.14264e+03 -1.72039e+03 -4.19167e+00
  8000     94.433  4.27518e+02 -2.14719e+03 -1.71967e+03 -4.69601e+00
  8010     95.347  4.31659e+02 -2.15019e+03 -1.71853e+03 -5.03713e+00
  8020     95.956  4.34416e+02 -2.15168e+03 -1.71726e+03 -5.20182e+00
  8030     96.249  4.35742e+02 -2.15154e+03 -1.71580e+03 -5.17600e+00
  8040     96.247  4.35732e+02 -2.14973e+03 -1.71399e+03 -4.96198e+00
  8050     96.031  4.34752e+02 -2.14706e+03 -1.71231e+03 -4.62347e+00
  8060     95.721  4.33350e+02 -2.14378e+03 -1.71043e+03 -4.19753e+00
  8070     95.422  4.31999e+02 -2.14019e+03 -1.70819e+03 -3.72193e+00
  8080     95.173  4.30871e+02 -2.13675e+03 -1.70588e+03 -3.23402e+00
  8090     94.967  4.29937e+02 -2.13351e+03 -1.70358e+03 -2.73935e+00
  8100     94.810  4.29228e+02 -2.13005e+03 -1.70082e+03 -2.21510e+00
  8110     94.751  4.28959e+02 -2.12658e+03 -1.69762e+03 -1.68500e+00
  8120     94.857  4.29440e+02 -2.12387e+03 -1.69443e+03 -1.20999e+00
  8130     95.211  4.31041e+02 -2.12205e+03 -1.69101e+03 -8.14616e-01
  8140     95.909  4.34200e+02 -2.12142e+03 -1.68722e+03 -5.34851e-01
  8150     97.022  4.39242e+02 -2.12284e+03 -1.68360e+03 -4.33480e-01
  8160     98.518  4.46013e+02 -2.12528e+03 -1.67926e+03 -4.38181e-01
  8170    100.224  4.53736e+02 -2.12881e+03 -1.67508e+03 -5.19997e-01
  8180    101.890  4.61280e+02 -2.13206e+03 -1.67078e+03 -5.49069e-01
  8190    103.303  4.67677e+02 -2.13408e+03 -1.66640e+03 -4.30652e-01
  8200    104.361  4.72467e+02 -2.13467e+03 -1.66220e+03 -1.36388e-01
  8210    105.064  4.75647e+02 -2.13381e+03 -1.65816e+03  3.30827e-01
  8220    105.461  4.77445e+02 -2.13197e+03 -1.65452e+03  9.26600e-01
  8230    105.628  4.78204e+02 -2.12929e+03 -1.65109e+03  1.61924e+00
  8240    105.656  4.78330e+02 -2.12630e+03 -1.64797e+03  2.35276e+00
  8250    105.626  4.78194e+02 -2.12310e+03 -1.64490e+03  3.10006e+00
  8260    105.589  4.78025e+02 -2.12025e+03 -1.64222e+03  3.81237e+00
  8270    105.543  4.77816e+02 -2.11774e+03 -1.63993e+03  4.48587e+00
  8280    105.447  4.77381e+02 -2.11509e+03 -1.63771e+03  5.15271e+00
  8290    105.269  4.76578e+02 -2.11221e+03 -1.63563e+03  5.81968e+00
  8300    105.019  4.75442e+02 -2.10944e+03 -1.63400e+03  6.45985e+00
  8310    104.727  4.74125e+02 -2.10644e+03 -1.63231e+03  7.08473e+00
  8320    104.422  4.72740e+02 -2.10396e+03 -1.63122e+03  7.63689e+00
  8330    104.105  4.71305e+02 -2.10135e+03 -1.63005e+03  8.15331e+00
  8340    103.782  4.69846e+02 -2.09907e+03 -1.62922e+03  8.60137e+00
  8350    103.499  4.68561e+02 -2.09721e+03 -1.62865e+03  8.96767e+00
  8360    103.312  4.67715e+02 -2.09580e+03 -1.62808e+03  9.24384e+00
  8370    103.224  4.67317e+02 -2.09514e+03 -1.62783e+03  9.41047e+00
  8380    103.176  4.67099e+02 -2.09465e+03 -1.62756e+03  9.51097e+00
  8390    103.163  4.67043e+02 -2.09437e+03 -1.62733e+03  9.54091e+00
  8400    103.319  4.67750e+02 -2.09508e+03 -1.62733e+03  9.43042e+00
  8410    103.776  4.69817e+02 -2.09764e+03 -1.62782e+03  9.10602e+00
  8420    104.476  4.72986e+02 -2.10103e+03 -1.62805e+03  8.63913e+00
  8430    105.249  4.76484e+02 -2.10501e+03 -1.62852e+03  8.07295e+00
  8440    105.989  4.79835e+02 -2.10931e+03 -1.62947e+03  7.44349e+00
  8450    106.671  4.82924e+02 -2.11350e+03 -1.63057e+03  6.78744e+00
  8460    107.262  4.85600e+02 -2.11723e+03 -1.63163e+03  6.13556e+00
  8470    107.684  4.87511e+02 -2.12086e+03 -1.63335e+03  5.48522e+00
  8480    107.835  4.88193e+02 -2.12404e+03 -1.63585e+03  4.87987e+00
  8490    107.635  4.87287e+02 -2.12550e+03 -1.63822e+03  4.41587e+00
  8500    107.053  4.84651e+02 -2.12603e+03 -1.64138e+03  4.05592e+00
  8510    106.106  4.80364e+02 -2.12511e+03 -1.64474e+03  3.83292e+00
  8520    104.857  4.74712e+02 -2.12288e+03 -1.64817e+03  3.72660e+00
  8530    103.439  4.68291e+02 -2.12007e+03 -1.65178e+03  3.66992e+00
  8540    102.068  4.62084e+02 -2.11770e+03 -1.65562e+03  3.56043e+00
  8550    101.000  4.57248e+02 -2.11649e+03 -1.65924e+03  3.31038e+00
  8560    100.392  4.54499e+02 -2.11774e+03 -1.66324e+03  2.81435e+00
  8570    100.192  4.53592e+02 -2.12071e+03 -1.66711e+03  2.12926e+00
  8580    100.163  4.53459e+02 -2.12455e+03 -1.67109e+03  1.35229e+00
  8590    100.036  4.52885e+02 -2.12772e+03 -1.67483e+03  6.34456e-01
  8600     99.629  4.51043e+02 -2.12992e+03 -1.67888e+03  3.52156e-02
  8610     98.857  4.47549e+02 -2.13043e+03 -1.68288e+03 -3.76806e-01
  8620     97.687  4.42252e+02 -2.12888e+03 -1.68662e+03 -5.71293e-01
  8630     96.170  4.35383e+02 -2.12546e+03 -1.69007e+03 -5.71769e-01
  8640     94.539  4.27998e+02 -2.12125e+03 -1.69325e+03 -4.89305e-01
  8650     93.162  4.21764e+02 -2.11803e+03 -1.69626e+03 -4.96067e-01
  8660     92.271  4.17730e+02 -2.11676e+03 -1.69903e+03 -6.92414e-01
  8670     91.808  4.15635e+02 -2.11697e+03 -1.70134e+03 -1.04356e+00
  8680     91.583  4.14616e+02 -2.11803e+03 -1.70341e+03 -1.48079e+00
  8690     91.478  4.14142e+02 -2.11911e+03 -1.70497e+03 -1.93173e+00
  8700     91.510  4.14287e+02 -2.12013e+03 -1.70585e+03 -2.38923e+00
  8710     91.759  4.15414e+02 -2.12215e+03 -1.70673e+03 -2.92518e+00
  8720     92.238  4.17583e+02 -2.12488e+03 -1.70730e+03 -3.52096e+00
  8730     92.844  4.20324e+02 -2.12802e+03 -1.70770e+03 -4.13633e+00
  8740     93.426  4.22961e+02 -2.13045e+03 -1.70749e+03 -4.67319e+00
  8750     93.891  4.25065e+02 -2.13201e+03 -1.70694e+03 -5.10012e+00
  8760     94.237  4.26632e+02 -2.13290e+03 -1.70627e+03 -5.42470e+00
  8770     94.524  4.27932e+02 -2.13363e+03 -1.70570e+03 -5.68356e+00
  8780     94.815  4.29248e+02 -2.13386e+03 -1.70461e+03 -5.86254e+00
  8790     95.131  4.30679e+02 -2.13410e+03 -1.70342e+03 -5.99537e+00
  8800     95.455  4.32147e+02 -2.13433e+03 -1.70218e+03 -6.07778e+00
  8810     95.761  4.33531e+02 -2.13379e+03 -1.70026e+03 -6.05657e+00
  8820     96.041  4.34801e+02 -2.13315e+03 -1.69835e+03 -5.97109e+00
  8830     96.326  4.36087e+02 -2.13232e+03 -1.69623e+03 -5.82017e+00
  8840     96.646  4.37536e+02 -2.13142e+03 -1.69388e+03 -5.61630e+00
  8850     96.999  4.39137e+02 -2.13041e+03 -1.69127e+03 -5.35870e+00
  8860     97.354  4.40746e+02 -2.12931e+03 -1.68856e+03 -5.04716e+00
  8870     97.701  4.42314e+02 -2.12811e+03 -1.68580e+03 -4.68602e+00
  8880     98.080  4.44029e+02 -2.12695e+03 -1.68292e+03 -4.29745e+00
  8890     98.559  4.46201e+02 -2.12626e+03 -1.68006e+03 -3.92950e+00
  8900     99.178  4.48999e+02 -2.12581e+03 -1.67682e+03 -3.58334e+00
  8910     99.907  4.52301e+02 -2.12573e+03 -1.67343e+03 -3.27141e+00
  8920    100.685  4.55824e+02 -2.12598e+03 -1.67015e+03 -2.98964e+00
  8930    101.456  4.59315e+02 -2.12631e+03 -1.66700e+03 -2.72052e+00
  8940    102.190  4.62636e+02 -2.12666e+03 -1.66402e+03 -2.45601e+00
  8950    102.859  4.65664e+02 -2.12655e+03 -1.66089e+03 -2.16305e+00
  8960    103.414  4.68178e+02 -2.12598e+03 -1.65780e+03 -1.83238e+00
  8970    103.780  4.69837e+02 -2.12509e+03 -1.65525e+03 -1.45765e+00
  8980    103.863  4.70212e+02 -2.12266e+03 -1.65245e+03 -9.46843e-01
  8990    103.594  4.68994e+02 -2.11921e+03 -1.65021e+03 -3.20189e-01
  9000    102.974  4.66186e+02 -2.11411e+03 -1.64792e+03  4.55942e-01
  9010    102.095  4.62207e+02 -2.10833e+03 -1.64612e+03  1.30162e+00
  9020    101.135  4.57862e+02 -2.10214e+03 -1.64428e+03  2.16376e+00
  9030    100.327  4.54203e+02 -2.09674e+03 -1.64253e+03  2.92330e+00
  9040     99.901  4.52275e+02 -2.09275e+03 -1.64047e+03  3.50106e+00
  9050     99.995  4.52699e+02 -2.09145e+03 -1.63875e+03  3.79781e+00
  9060    100.561  4.55263e+02 -2.09178e+03 -1.63652e+03  3.89172e+00
  9070    101.372  4.58933e+02 -2.09365e+03 -1.63472e+03  3.83186e+00
  9080    102.158  4.62490e+02 -2.09563e+03 -1.63314e+03  3.75579e+00
  9090    102.755  4.65194e+02 -2.09648e+03 -1.63129e+03  3.77254e+00
  9100    103.142  4.66949e+02 -2.09686e+03 -1.62991e+03  3.84946e+00
  9110    103.386  4.68054e+02 -2.09662e+03 -1.62856e+03  3.98504e+00
  9120    103.576  4.68911e+02 -2.09594e+03 -1.62703e+03  4.15288e+00
  9130    103.786  4.69862e+02 -2.09544e+03 -1.62558e+03  4.30116e+00
  9140    104.062  4.71111e+02 -2.09559e+03 -1.62448e+03  4.39181e+00
  9150    104.404  4.72662e+02 -2.09602e+03 -1.62336e+03  4.44475e+00
  9160    104.790  4.74409e+02 -2.09712e+03 -1.62271e+03  4.44020e+00
  9170    105.195  4.76241e+02 -2.09850e+03 -1.62226e+03  4.40508e+00
  9180    105.589  4.78023e+02 -2.10013e+03 -1.62211e+03  4.34855e+00
  9190    105.899  4.79427e+02 -2.10173e+03 -1.62230e+03  4.30213e+00
  9200    106.005  4.79910e+02 -2.10262e+03 -1.62271e+03  4.32678e+00
  9210    105.794  4.78953e+02 -2.10227e+03 -1.62332e+03  4.47046e+00
  9220    105.243  4.76458e+02 -2.10064e+03 -1.62418e+03  4.73230e+00
  9230    104.477  4.72992e+02 -2.09831e+03 -1.62532e+03  5.04410e+00
  9240    103.733  4.69623e+02 -2.09600e+03 -1.62637e+03  5.31160e+00
  9250    103.226  4.67327e+02 -2.09504e+03 -1.62771e+03  5.40543e+00
  9260    103.040  4.66486e+02 -2.09586e+03 -1.62937e+03  5.27867e+00
  9270    103.128  4.66883e+02 -2.09828e+03 -1.63140e+03  4.94820e+00
  9280    103.395  4.68091e+02 -2.10133e+03 -1.63324e+03  4.49268e+00
  9290    103.753  4.69714e+02 -2.10531e+03 -1.63559e+03  3.91722e+00
  9300    104.123  4.71390e+02 -2.10921e+03 -1.63782e+03  3.30601e+00
  9310    104.409  4.72685e+02 -2.11309e+03 -1.64040e+03  2.68323e+00
  9320    104.498  4.73086e+02 -2.11614e+03 -1.64306e+03  2.12722e+00
  9330    104.295  4.72165e+02 -2.11802e+03 -1.64586e+03  1.68404e+00
  9340    103.774  4.69808e+02 -2.11889e+03 -1.64908e+03  1.35541e+00
  9350    102.989  4.66252e+02 -2.11855e+03 -1.65230e+03  1.15008e+00
  9360    102.026  4.61897e+02 -2.11762e+03 -1.65572e+03  1.01880e+00
  9370    100.951  4.57029e+02 -2.11641e+03 -1.65938e+03  9.28959e-01
  9380     99.809  4.51857e+02 -2.11436e+03 -1.66250e+03  9.01625e-01
  9390     98.679  4.46744e+02 -2.11268e+03 -1.66593e+03  8.42056e-01
  9400     97.713  4.42371e+02 -2.11158e+03 -1.66921e+03  7.06944e-01
  9410     97.086  4.39531e+02 -2.11176e+03 -1.67223e+03  4.22068e-01
  9420     96.873  4.38568e+02 -2.11377e+03 -1.67520e+03 -5.89099e-02
  9430     96.996  4.39123e+02 -2.11750e+03 -1.67838e+03 -7.13772e-01
  9440     97.329  4.40628e+02 -2.12190e+03 -1.68127e+03 -1.45081e+00
  9450     97.783  4.42685e+02 -2.12649e+03 -1.68381e+03 -2.21664e+00
  9460     98.260  4.44847e+02 -2.13132e+03 -1.68648e+03 -2.98646e+00
  9470     98.623  4.46486e+02 -2.13570e+03 -1.68921e+03 -3.68631e+00
  9480     98.752  4.47074e+02 -2.13877e+03 -1.69169e+03 -4.23689e+00
  9490     98.623  4.46489e+02 -2.14025e+03 -1.69377e+03 -4.61155e+00
  9500     98.291  4.44984e+02 -2.14115e+03 -1.69617e+03 -4.87626e+00
  9510     97.831  4.42901e+02 -2.14123e+03 -1.69833e+03 -5.02815e+00
  9520     97.281  4.40413e+02 -2.14096e+03 -1.70055e+03 -5.10654e+00
  9530     96.647  4.37542e+02 -2.14012e+03 -1.70258e+03 -5.10255e+00
  9540     95.951  4.34391e+02 -2.13877e+03 -1.70438e+03 -5.03047e+00
  9550     95.260  4.31266e+02 -2.13718e+03 -1.70591e+03 -4.92270e+00
  9560     94.646  4.28486e+02 -2.13575e+03 -1.70727e+03 -4.82074e+00
  9570     94.121  4.26107e+02 -2.13453e+03 -1.70842e+03 -4.73397e+00
  9580     93.649  4.23971e+02 -2.13291e+03 -1.70893e+03 -4.62516e+00
  9590     93.206  4.21967e+02 -2.13140e+03 -1.70943e+03 -4.52652e+00
  9600     92.820  4.20215e+02 -2.12969e+03 -1.70948e+03 -4.42645e+00
  9610     92.567  4.19070e+02 -2.12859e+03 -1.70952e+03 -4.38983e+00
  9620     92.557  4.19027e+02 -2.12801e+03 -1.70898e+03 -4.43088e+00
  9630     92.882  4.20499e+02 -2.12889e+03 -1.70839e+03 -4.62050e+00
  9640     93.577  4.23642e+02 -2.13092e+03 -1.70728e+03 -4.94073e+00
  9650     94.598  4.28267e+02 -2.13424e+03 -1.70597e+03 -5.38724e+00
  9660     95.794  4.33679e+02 -2.13798e+03 -1.70430e+03 -5.87345e+00
  9670     96.927  4.38811e+02 -2.14135e+03 -1.70254e+03 -6.30616e+00
  9680     97.817  4.42841e+02 -2.14383e+03 -1.70099e+03 -6.61881e+00
  9690     98.435  4.45637e+02 -2.14489e+03 -1.69925e+03 -6.77215e+00
  9700     98.867  4.47593e+02 -2.14485e+03 -1.69725e+03 -6.79776e+00
  9710     99.222  4.49202e+02 -2.14453e+03 -1.69533e+03 -6.76539e+00
  9720     99.551  4.50688e+02 -2.14407e+03 -1.69338e+03 -6.69318e+00
  9730     99.825  4.51931e+02 -2.14301e+03 -1.69108e+03 -6.55450e+00
  9740    100.009  4.52762e+02 -2.14155e+03 -1.68878e+03 -6.36183e+00
  9750    100.154  4.53421e+02 -2.13992e+03 -1.68650e+03 -6.14604e+00
  9760    100.420  4.54625e+02 -2.13900e+03 -1.68437e+03 -5.99043e+00
  9770    100.928  4.56924e+02 -2.13902e+03 -1.68209e+03 -5.92842e+00
  9780    101.593  4.59934e+02 -2.13997e+03 -1.68004e+03 -5.94193e+00
  9790    102.177  4.62576e+02 -2.14054e+03 -1.67796e+03 -5.90471e+00
  9800    102.479  4.63945e+02 -2.13994e+03 -1.67599e+03 -5.72980e+00
  9810    102.444  4.63789e+02 -2.13765e+03 -1.67386e+03 -5.37355e+00
  9820    102.157  4.62489e+02 -2.13460e+03 -1.67211e+03 -4.90764e+00
  9830    101.787  4.60811e+02 -2.13103e+03 -1.67022e+03 -4.38153e+00
  9840    101.524  4.59624e+02 -2.12803e+03 -1.66841e+03 -3.90102e+00
  9850    101.529  4.59646e+02 -2.12631e+03 -1.66667e+03 -3.54170e+00
  9860    101.879  4.61231e+02 -2.12640e+03 -1.66517e+03 -3.35090e+00
  9870    102.535  4.64197e+02 -2.12761e+03 -1.66341e+03 -3.27873e+00
  9880    103.345  4.67867e+02 -2.13013e+03 -1.66226e+03 -3.30870e+00
  9890    104.096  4.71268e+02 -2.13215e+03 -1.66089e+03 -3.28912e+00
  9900    104.561  4.73373e+02 -2.13311e+03 -1.65973e+03 -3.14183e+00
  9910    104.566  4.73396e+02 -2.13245e+03 -1.65905e+03 -2.80509e+00
  9920    104.057  4.71091e+02 -2.12965e+03 -1.65856e+03 -2.24228e+00
  9930    103.117  4.66835e+02 -2.12539e+03 -1.65855e+03 -1.51852e+00
  9940    101.938  4.61498e+02 -2.11971e+03 -1.65821e+03 -6.83143e-01
  9950    100.771  4.56215e+02 -2.11413e+03 -1.65792e+03  1.09791e-01
  9960     99.877  4.52166e+02 -2.10993e+03 -1.65776e+03  7.20304e-01
  9970     99.455  4.50254e+02 -2.10779e+03 -1.65754e+03  1.05694e+00
  9980     99.569  4.50773e+02 -2.10800e+03 -1.65722e+03  1.08215e+00
  9990    100.152  4.53409e+02 -2.11034e+03 -1.65693e+03  8.18505e-01
