Step    T(K)    KE(kJ)    PE(kJ)    TotE(kJ)    P(MPa)
     0      0.104  4.70339e-01 -1.63104e+03 -1.63057e+03  1.97223e+02
    10      0.452  2.04755e+00 -1.63261e+03 -1.63056e+03  1.96915e+02
    20      1.347  6.10023e+00 -1.63659e+03 -1.63049e+03  1.96126e+02
    30      2.749  1.24453e+01 -1.64270e+03 -1.63025e+03  1.94899e+02
    40      4.604  2.08418e+01 -1.65050e+03 -1.62965e+03  1.93291e+02
    50      6.860  3.10579e+01 -1.65953e+03 -1.62848e+03  1.91372e+02
    60      9.483  4.29327e+01 -1.66938e+03 -1.62645e+03  1.89208e+02
    70     12.463  5.64212e+01 -1.67961e+03 -1.62318e+03  1.86865e+02
    80     15.819  7.16148e+01 -1.68986e+03 -1.61824e+03  1.84400e+02
    90     19.604  8.87508e+01 -1.69962e+03 -1.61087e+03  1.81874e+02
   100     23.891  1.08162e+02 -1.70950e+03 -1.60134e+03  1.79280e+02
   110     28.788  1.30330e+02 -1.71388e+03 -1.58355e+03  1.76990e+02
   120     34.414  1.55799e+02 -1.72206e+03 -1.56626e+03  1.74463e+02
   130     40.880  1.85072e+02 -1.73232e+03 -1.54725e+03  1.71831e+02
   140     48.319  2.18750e+02 -1.74155e+03 -1.52280e+03  1.69318e+02
   150     56.875  2.57486e+02 -1.74876e+03 -1.49127e+03  1.67023e+02
   160     66.690  3.01921e+02 -1.75669e+03 -1.45477e+03  1.64820e+02
   170     77.892  3.52633e+02 -1.76346e+03 -1.41083e+03  1.62866e+02
   180     90.599  4.10163e+02 -1.76695e+03 -1.35679e+03  1.61338e+02
   190    104.889  4.74858e+02 -1.77013e+03 -1.29527e+03  1.60095e+02
   200    120.775  5.46775e+02 -1.77142e+03 -1.22464e+03  1.59268e+02
   210    138.185  6.25594e+02 -1.77059e+03 -1.14500e+03  1.58893e+02
   220    156.930  7.10456e+02 -1.76728e+03 -1.05682e+03  1.58995e+02
   230    176.665  7.99804e+02 -1.76211e+03 -9.62309e+02  1.59510e+02
   240    196.858  8.91219e+02 -1.75509e+03 -8.63873e+02  1.60382e+02
   250    216.759  9.81316e+02 -1.74569e+03 -7.64377e+02  1.61550e+02
   260    235.411  1.06576e+03 -1.73256e+03 -6.66801e+02  1.62978e+02
   270    251.680  1.13941e+03 -1.71719e+03 -5.77783e+02  1.64432e+02
   280    264.355  1.19679e+03 -1.69859e+03 -5.01796e+02  1.65820e+02
   290    272.393  1.23318e+03 -1.67675e+03 -4.43562e+02  1.66980e+02
   300    275.320  1.24644e+03 -1.65143e+03 -4.04992e+02  1.67756e+02
   310    273.437  1.23791e+03 -1.62543e+03 -3.87512e+02  1.67804e+02
   320    267.446  1.21079e+03 -1.60311e+03 -3.92323e+02  1.66738e+02
   330    258.025  1.16814e+03 -1.58592e+03 -4.17781e+02  1.64473e+02
   340    245.947  1.11346e+03 -1.57414e+03 -4.60683e+02  1.61064e+02
   350    232.146  1.05098e+03 -1.56835e+03 -5.17376e+02  1.56597e+02
   360    217.352  9.84003e+02 -1.56917e+03 -5.85168e+02  1.51208e+02
   370    201.912  9.14101e+02 -1.57285e+03 -6.58753e+02  1.45354e+02
   380    186.020  8.42155e+02 -1.57791e+03 -7.35751e+02  1.39365e+02
   390    169.973  7.69507e+02 -1.58321e+03 -8.13700e+02  1.33504e+02
   400    154.202  6.98107e+02 -1.58797e+03 -8.89867e+02  1.27945e+02
   410    139.166  6.30037e+02 -1.59201e+03 -9.61970e+02  1.22765e+02
   420    125.246  5.67017e+02 -1.59646e+03 -1.02944e+03  1.17911e+02
   430    112.684  5.10146e+02 -1.60173e+03 -1.09158e+03  1.13350e+02
   440    101.582  4.59883e+02 -1.60791e+03 -1.14803e+03  1.09054e+02
   450     91.925  4.16166e+02 -1.61543e+03 -1.19927e+03  1.04967e+02
   460     83.627  3.78599e+02 -1.62368e+03 -1.24508e+03  1.01095e+02
   470     76.565  3.46629e+02 -1.63329e+03 -1.28666e+03  9.73658e+01
   480     70.617  3.19700e+02 -1.64356e+03 -1.32386e+03  9.37902e+01
   490     65.680  2.97350e+02 -1.65489e+03 -1.35754e+03  9.03078e+01
   500     61.675  2.79215e+02 -1.66763e+03 -1.38841e+03  8.68585e+01
   510     58.536  2.65007e+02 -1.68140e+03 -1.41640e+03  8.34294e+01
   520     56.204  2.54448e+02 -1.69643e+03 -1.44198e+03  7.99739e+01
   530     54.612  2.47241e+02 -1.71305e+03 -1.46581e+03  7.64450e+01
   540     53.687  2.43053e+02 -1.73076e+03 -1.48770e+03  7.28548e+01
   550     53.350  2.41527e+02 -1.74991e+03 -1.50839e+03  6.91713e+01
   560     53.520  2.42299e+02 -1.76987e+03 -1.52757e+03  6.54309e+01
   570     54.122  2.45023e+02 -1.79118e+03 -1.54616e+03  6.16008e+01
   580     55.087  2.49389e+02 -1.81309e+03 -1.56370e+03  5.77334e+01
   590     56.352  2.55118e+02 -1.83555e+03 -1.58043e+03  5.38385e+01
   600     57.863  2.61960e+02 -1.85864e+03 -1.59668e+03  4.99184e+01
   610     59.573  2.69699e+02 -1.88170e+03 -1.61200e+03  4.60236e+01
   620     61.434  2.78124e+02 -1.90481e+03 -1.62669e+03  4.21576e+01
   630     63.405  2.87048e+02 -1.92770e+03 -1.64065e+03  3.83474e+01
   640     65.453  2.96320e+02 -1.95013e+03 -1.65381e+03  3.46149e+01
   650     67.553  3.05828e+02 -1.97227e+03 -1.66644e+03  3.09585e+01
   660     69.674  3.15429e+02 -1.99411e+03 -1.67868e+03  2.73870e+01
   670     71.763  3.24887e+02 -2.01517e+03 -1.69028e+03  2.39438e+01
   680     73.752  3.33892e+02 -2.03499e+03 -1.70110e+03  2.06731e+01
   690     75.571  3.42127e+02 -2.05350e+03 -1.71137e+03  1.75967e+01
   700     77.160  3.49321e+02 -2.07046e+03 -1.72114e+03  1.47448e+01
   710     78.467  3.55239e+02 -2.08563e+03 -1.73039e+03  1.21439e+01
   720     79.465  3.59757e+02 -2.09867e+03 -1.73891e+03  9.82443e+00
   730     80.161  3.62908e+02 -2.10950e+03 -1.74659e+03  7.79084e+00
   740     80.599  3.64889e+02 -2.11853e+03 -1.75364e+03  6.01167e+00
   750     80.847  3.66012e+02 -2.12606e+03 -1.76005e+03  4.45460e+00
   760     80.995  3.66682e+02 -2.13221e+03 -1.76552e+03  3.09396e+00
   770     81.131  3.67298e+02 -2.13775e+03 -1.77045e+03  1.86248e+00
   780     81.314  3.68125e+02 -2.14275e+03 -1.77463e+03  7.39891e-01
   790     81.566  3.69268e+02 -2.14771e+03 -1.77844e+03 -3.13728e-01
   800     81.880  3.70690e+02 -2.15196e+03 -1.78127e+03 -1.26033e+00
   810     82.212  3.72194e+02 -2.15574e+03 -1.78355e+03 -2.11089e+00
   820     82.492  3.73458e+02 -2.15875e+03 -1.78529e+03 -2.83684e+00
   830     82.683  3.74324e+02 -2.16066e+03 -1.78634e+03 -3.41494e+00
   840     82.851  3.75083e+02 -2.16184e+03 -1.78676e+03 -3.87844e+00
   850     83.140  3.76392e+02 -2.16262e+03 -1.78623e+03 -4.27182e+00
   860     83.673  3.78806e+02 -2.16419e+03 -1.78538e+03 -4.68755e+00
   870     84.462  3.82377e+02 -2.16614e+03 -1.78376e+03 -5.10181e+00
   880     85.390  3.86578e+02 -2.16825e+03 -1.78167e+03 -5.48137e+00
   890     86.290  3.90654e+02 -2.16947e+03 -1.77882e+03 -5.73548e+00
   900     87.041  3.94055e+02 -2.16955e+03 -1.77550e+03 -5.82932e+00
   910     87.614  3.96649e+02 -2.16802e+03 -1.77137e+03 -5.73236e+00
   920     88.053  3.98635e+02 -2.16537e+03 -1.76673e+03 -5.48622e+00
   930     88.436  4.00369e+02 -2.16204e+03 -1.76167e+03 -5.13921e+00
   940     88.865  4.02314e+02 -2.15833e+03 -1.75601e+03 -4.73509e+00
   950     89.468  4.05043e+02 -2.15516e+03 -1.75012e+03 -4.35955e+00
   960     90.380  4.09173e+02 -2.15269e+03 -1.74352e+03 -4.04936e+00
   970     91.700  4.15148e+02 -2.15172e+03 -1.73657e+03 -3.87001e+00
   980     93.438  4.23015e+02 -2.15218e+03 -1.72917e+03 -3.81905e+00
   990     95.502  4.32357e+02 -2.15371e+03 -1.72136e+03 -3.85355e+00
  1000     97.724  4.42417e+02 -2.15550e+03 -1.71309e+03 -3.89232e+00
  1010     99.923  4.52372e+02 -2.15698e+03 -1.70461e+03 -3.86617e+00
  1020    101.957  4.61583e+02 -2.15778e+03 -1.69620e+03 -3.72753e+00
  1030    103.751  4.69705e+02 -2.15741e+03 -1.68771e+03 -3.43457e+00
  1040    105.299  4.76713e+02 -2.15583e+03 -1.67911e+03 -2.98509e+00
  1050    106.619  4.82687e+02 -2.15310e+03 -1.67041e+03 -2.39162e+00
  1060    107.690  4.87537e+02 -2.14948e+03 -1.66194e+03 -1.67470e+00
  1070    108.451  4.90980e+02 -2.14508e+03 -1.65410e+03 -8.42656e-01
  1080    108.879  4.92918e+02 -2.13919e+03 -1.64628e+03  1.36810e-01
  1090    109.069  4.93781e+02 -2.13275e+03 -1.63897e+03  1.17721e+00
  1100    109.232  4.94518e+02 -2.12671e+03 -1.63219e+03  2.17297e+00
  1110    109.548  4.95950e+02 -2.12190e+03 -1.62595e+03  3.03346e+00
  1120    110.028  4.98121e+02 -2.11825e+03 -1.62013e+03  3.75291e+00
  1130    110.532  5.00405e+02 -2.11489e+03 -1.61449e+03  4.39592e+00
  1140    110.921  5.02165e+02 -2.11179e+03 -1.60963e+03  4.98171e+00
  1150    111.129  5.03106e+02 -2.10845e+03 -1.60534e+03  5.54656e+00
  1160    111.169  5.03287e+02 -2.10487e+03 -1.60158e+03  6.08048e+00
  1170    111.142  5.03163e+02 -2.10152e+03 -1.59836e+03  6.53123e+00
  1180    111.239  5.03604e+02 -2.09928e+03 -1.59567e+03  6.81162e+00
  1190    111.607  5.05270e+02 -2.09890e+03 -1.59363e+03  6.85426e+00
  1200    112.172  5.07829e+02 -2.09956e+03 -1.59173e+03  6.72726e+00
  1210    112.699  5.10215e+02 -2.10107e+03 -1.59085e+03  6.49216e+00
  1220    112.961  5.11398e+02 -2.10178e+03 -1.59038e+03  6.29803e+00
  1230    112.824  5.10780e+02 -2.10184e+03 -1.59106e+03  6.17253e+00
  1240    112.253  5.08195e+02 -2.10023e+03 -1.59203e+03  6.19191e+00
  1250    111.280  5.03789e+02 -2.09718e+03 -1.59339e+03  6.34081e+00
  1260    109.984  4.97923e+02 -2.09354e+03 -1.59562e+03  6.55336e+00
  1270    108.506  4.91231e+02 -2.08924e+03 -1.59801e+03  6.80548e+00
  1280    107.039  4.84591e+02 -2.08528e+03 -1.60069e+03  6.99581e+00
  1290    105.778  4.78880e+02 -2.08309e+03 -1.60421e+03  6.99549e+00
  1300    104.888  4.74853e+02 -2.08267e+03 -1.60781e+03  6.76920e+00
  1310    104.473  4.72974e+02 -2.08448e+03 -1.61150e+03  6.26742e+00
  1320    104.475  4.72984e+02 -2.08854e+03 -1.61556e+03  5.49824e+00
  1330    104.670  4.73867e+02 -2.09341e+03 -1.61954e+03  4.58972e+00
  1340    104.824  4.74562e+02 -2.09807e+03 -1.62351e+03  3.64823e+00
  1350    104.820  4.74542e+02 -2.10250e+03 -1.62796e+03  2.70303e+00
  1360    104.655  4.73799e+02 -2.10626e+03 -1.63246e+03  1.79042e+00
  1370    104.409  4.72685e+02 -2.11022e+03 -1.63754e+03  8.50825e-01
  1380    104.148  4.71499e+02 -2.11435e+03 -1.64285e+03 -1.16167e-01
  1390    103.814  4.69989e+02 -2.11801e+03 -1.64802e+03 -1.05659e+00
  1400    103.278  4.67565e+02 -2.12137e+03 -1.65380e+03 -1.95287e+00
  1410    102.500  4.64042e+02 -2.12344e+03 -1.65940e+03 -2.72910e+00
  1420    101.567  4.59819e+02 -2.12469e+03 -1.66487e+03 -3.41735e+00
  1430    100.583  4.55362e+02 -2.12597e+03 -1.67060e+03 -4.07483e+00
  1440     99.555  4.50707e+02 -2.12687e+03 -1.67616e+03 -4.66976e+00
  1450     98.402  4.45487e+02 -2.12720e+03 -1.68171e+03 -5.17034e+00
  1460     97.053  4.39380e+02 -2.12650e+03 -1.68712e+03 -5.53067e+00
  1470     95.519  4.32437e+02 -2.12491e+03 -1.69247e+03 -5.75692e+00
  1480     93.900  4.25105e+02 -2.12233e+03 -1.69722e+03 -5.85637e+00
  1490     92.343  4.18057e+02 -2.11964e+03 -1.70159e+03 -5.90876e+00
  1500     90.997  4.11966e+02 -2.11771e+03 -1.70574e+03 -5.99383e+00
  1510     89.952  4.07231e+02 -2.11662e+03 -1.70939e+03 -6.13839e+00
  1520     89.213  4.03889e+02 -2.11654e+03 -1.71265e+03 -6.35938e+00
  1530     88.751  4.01794e+02 -2.11720e+03 -1.71541e+03 -6.64163e+00
  1540     88.556  4.00913e+02 -2.11870e+03 -1.71778e+03 -6.99283e+00
  1550     88.659  4.01381e+02 -2.12096e+03 -1.71957e+03 -7.41534e+00
  1560     89.083  4.03299e+02 -2.12423e+03 -1.72093e+03 -7.92550e+00
  1570     89.783  4.06466e+02 -2.12844e+03 -1.72198e+03 -8.50488e+00
  1580     90.634  4.10322e+02 -2.13295e+03 -1.72263e+03 -9.08595e+00
  1590     91.483  4.14165e+02 -2.13725e+03 -1.72308e+03 -9.60081e+00
  1600     92.197  4.17395e+02 -2.14049e+03 -1.72310e+03 -9.96537e+00
  1610     92.687  4.19617e+02 -2.14217e+03 -1.72256e+03 -1.01255e+01
  1620     92.910  4.20624e+02 -2.14243e+03 -1.72180e+03 -1.00771e+01
  1630     92.845  4.20328e+02 -2.14108e+03 -1.72075e+03 -9.80772e+00
  1640     92.501  4.18774e+02 -2.13838e+03 -1.71961e+03 -9.34140e+00
  1650     91.927  4.16174e+02 -2.13369e+03 -1.71752e+03 -8.65679e+00
  1660     91.213  4.12943e+02 -2.12845e+03 -1.71550e+03 -7.87284e+00
  1670     90.496  4.09697e+02 -2.12269e+03 -1.71300e+03 -7.03281e+00
  1680     89.941  4.07182e+02 -2.11752e+03 -1.71034e+03 -6.24743e+00
  1690     89.713  4.06150e+02 -2.11355e+03 -1.70740e+03 -5.59770e+00
  1700     89.942  4.07188e+02 -2.11106e+03 -1.70388e+03 -5.13362e+00
  1710     90.671  4.10486e+02 -2.11021e+03 -1.69972e+03 -4.87492e+00
  1720     91.816  4.15672e+02 -2.11104e+03 -1.69536e+03 -4.81192e+00
  1730     93.225  4.22050e+02 -2.11262e+03 -1.69057e+03 -4.85952e+00
  1740     94.752  4.28963e+02 -2.11440e+03 -1.68544e+03 -4.95121e+00
  1750     96.291  4.35931e+02 -2.11590e+03 -1.67996e+03 -5.03295e+00
  1760     97.769  4.42623e+02 -2.11688e+03 -1.67426e+03 -5.07279e+00
  1770     99.153  4.48886e+02 -2.11729e+03 -1.66840e+03 -5.05916e+00
  1780    100.472  4.54860e+02 -2.11698e+03 -1.66212e+03 -4.98960e+00
  1790    101.815  4.60938e+02 -2.11685e+03 -1.65592e+03 -4.93590e+00
  1800    103.277  4.67557e+02 -2.11739e+03 -1.64983e+03 -4.94487e+00
  1810    104.916  4.74977e+02 -2.11868e+03 -1.64370e+03 -5.03015e+00
  1820    106.708  4.83090e+02 -2.12082e+03 -1.63773e+03 -5.18810e+00
  1830    108.536  4.91369e+02 -2.12328e+03 -1.63191e+03 -5.35936e+00
  1840    110.215  4.98969e+02 -2.12523e+03 -1.62626e+03 -5.45201e+00
  1850    111.542  5.04974e+02 -2.12623e+03 -1.62126e+03 -5.39820e+00
  1860    112.347  5.08620e+02 -2.12579e+03 -1.61717e+03 -5.13422e+00
  1870    112.523  5.09419e+02 -2.12266e+03 -1.61324e+03 -4.56747e+00
  1880    112.059  5.07315e+02 -2.11728e+03 -1.60996e+03 -3.73067e+00
  1890    111.080  5.02885e+02 -2.11056e+03 -1.60767e+03 -2.71493e+00
  1900    109.871  4.97413e+02 -2.10293e+03 -1.60551e+03 -1.61393e+00
  1910    108.824  4.92669e+02 -2.09681e+03 -1.60414e+03 -6.61967e-01
  1920    108.303  4.90310e+02 -2.09373e+03 -1.60342e+03 -3.17788e-02
  1930    108.496  4.91188e+02 -2.09388e+03 -1.60269e+03  2.19519e-01
  1940    109.301  4.94832e+02 -2.09718e+03 -1.60235e+03  1.09176e-01
  1950    110.353  4.99594e+02 -2.10223e+03 -1.60264e+03 -2.17815e-01
  1960    111.200  5.03428e+02 -2.10706e+03 -1.60363e+03 -5.59766e-01
  1970    111.496  5.04769e+02 -2.10969e+03 -1.60492e+03 -7.32034e-01
  1980    111.143  5.03170e+02 -2.11025e+03 -1.60708e+03 -7.17644e-01
  1990    110.299  4.99347e+02 -2.10899e+03 -1.60964e+03 -5.51664e-01
  2000    109.241  4.94557e+02 -2.10700e+03 -1.61244e+03 -3.41510e-01
  2010    108.174  4.89729e+02 -2.10546e+03 -1.61573e+03 -1.89449e-01
  2020    107.161  4.85144e+02 -2.10445e+03 -1.61930e+03 -1.08444e-01
  2030    106.152  4.80574e+02 -2.10396e+03 -1.62338e+03 -8.75724e-02
  2040    105.057  4.75617e+02 -2.10343e+03 -1.62781e+03 -7.57904e-02
  2050    103.822  4.70025e+02 -2.10221e+03 -1.63219e+03 -2.29243e-02
  2060    102.463  4.63874e+02 -2.10053e+03 -1.63666e+03  5.40071e-02
  2070    101.084  4.57632e+02 -2.09877e+03 -1.64114e+03  1.12432e-01
  2080     99.856  4.52072e+02 -2.09778e+03 -1.64571e+03  6.92221e-02
  2090     98.939  4.47920e+02 -2.09804e+03 -1.65012e+03 -1.31771e-01
  2100     98.377  4.45376e+02 -2.09992e+03 -1.65454e+03 -5.18928e-01
  2110     98.058  4.43932e+02 -2.10271e+03 -1.65878e+03 -1.02479e+00
  2120     97.774  4.42646e+02 -2.10529e+03 -1.66264e+03 -1.53946e+00
  2130     97.347  4.40711e+02 -2.10741e+03 -1.66670e+03 -2.00941e+00
  2140     96.732  4.37926e+02 -2.10877e+03 -1.67084e+03 -2.40118e+00
  2150     96.012  4.34667e+02 -2.10932e+03 -1.67466e+03 -2.71848e+00
  2160     95.306  4.31474e+02 -2.10968e+03 -1.67821e+03 -3.01615e+00
  2170     94.700  4.28728e+02 -2.11031e+03 -1.68158e+03 -3.33839e+00
  2180     94.244  4.26663e+02 -2.11121e+03 -1.68455e+03 -3.69585e+00
  2190     93.990  4.25512e+02 -2.11281e+03 -1.68730e+03 -4.12393e+00
  2200     93.978  4.25458e+02 -2.11550e+03 -1.69004e+03 -4.65289e+00
  2210     94.202  4.26472e+02 -2.11897e+03 -1.69249e+03 -5.25956e+00
  2220     94.595  4.28251e+02 -2.12273e+03 -1.69448e+03 -5.89939e+00
  2230     95.034  4.30240e+02 -2.12662e+03 -1.69638e+03 -6.53615e+00
  2240     95.383  4.31819e+02 -2.12967e+03 -1.69785e+03 -7.08306e+00
  2250     95.547  4.32562e+02 -2.13190e+03 -1.69934e+03 -7.52160e+00
  2260     95.504  4.32367e+02 -2.13274e+03 -1.70037e+03 -7.80919e+00
  2270     95.290  4.31400e+02 -2.13270e+03 -1.70130e+03 -7.98248e+00
  2280     94.975  4.29971e+02 -2.13214e+03 -1.70217e+03 -8.07355e+00
  2290     94.645  4.28478e+02 -2.13118e+03 -1.70271e+03 -8.10626e+00
  2300     94.402  4.27380e+02 -2.13057e+03 -1.70319e+03 -8.14322e+00
  2310     94.351  4.27150e+02 -2.13052e+03 -1.70337e+03 -8.21491e+00
  2320     94.567  4.28124e+02 -2.13120e+03 -1.70307e+03 -8.34045e+00
  2330     95.049  4.30308e+02 -2.13308e+03 -1.70277e+03 -8.54643e+00
  2340     95.711  4.33306e+02 -2.13578e+03 -1.70248e+03 -8.78819e+00
  2350     96.401  4.36427e+02 -2.13835e+03 -1.70193e+03 -8.97659e+00
  2360     96.952  4.38923e+02 -2.14017e+03 -1.70125e+03 -9.04082e+00
  2370     97.233  4.40197e+02 -2.14030e+03 -1.70011e+03 -8.89890e+00
  2380     97.173  4.39922e+02 -2.13850e+03 -1.69858e+03 -8.52407e+00
  2390     96.761  4.38060e+02 -2.13556e+03 -1.69750e+03 -7.96992e+00
  2400     96.060  4.34886e+02 -2.13083e+03 -1.69594e+03 -7.21621e+00
  2410     95.199  4.30987e+02 -2.12541e+03 -1.69443e+03 -6.36542e+00
  2420     94.349  4.27141e+02 -2.11995e+03 -1.69281e+03 -5.50015e+00
  2430     93.670  4.24065e+02 -2.11500e+03 -1.69093e+03 -4.69425e+00
  2440     93.260  4.22208e+02 -2.11100e+03 -1.68879e+03 -4.00446e+00
  2450     93.154  4.21731e+02 -2.10806e+03 -1.68633e+03 -3.45208e+00
  2460     93.365  4.22685e+02 -2.10638e+03 -1.68369e+03 -3.05544e+00
  2470     93.909  4.25148e+02 -2.10547e+03 -1.68032e+03 -2.78646e+00
  2480     94.809  4.29220e+02 -2.10624e+03 -1.67702e+03 -2.69931e+00
  2490     96.066  4.34913e+02 -2.10837e+03 -1.67346e+03 -2.76604e+00
  2500     97.637  4.42024e+02 -2.11155e+03 -1.66953e+03 -2.95028e+00
  2510     99.419  4.50092e+02 -2.11563e+03 -1.66554e+03 -3.21595e+00
  2520    101.267  4.58458e+02 -2.11986e+03 -1.66140e+03 -3.48453e+00
  2530    103.018  4.66388e+02 -2.12331e+03 -1.65692e+03 -3.66554e+00
  2540    104.525  4.73210e+02 -2.12576e+03 -1.65255e+03 -3.71665e+00
  2550    105.689  4.78479e+02 -2.12691e+03 -1.64843e+03 -3.60224e+00
  2560    106.475  4.82037e+02 -2.12686e+03 -1.64482e+03 -3.32503e+00
  2570    106.886  4.83899e+02 -2.12516e+03 -1.64126e+03 -2.86325e+00
  2580    106.936  4.84122e+02 -2.12229e+03 -1.63816e+03 -2.25635e+00
  2590    106.662  4.82883e+02 -2.11844e+03 -1.63556e+03 -1.53336e+00
  2600    106.168  4.80647e+02 -2.11350e+03 -1.63286e+03 -7.14441e-01
  2610    105.638  4.78246e+02 -2.10897e+03 -1.63072e+03  7.04533e-02
  2620    105.280  4.76626e+02 -2.10536e+03 -1.62874e+03  7.47652e-01
  2630    105.254  4.76507e+02 -2.10335e+03 -1.62685e+03  1.24699e+00
  2640    105.609  4.78117e+02 -2.10382e+03 -1.62570e+03  1.50497e+00
  2650    106.249  4.81013e+02 -2.10561e+03 -1.62460e+03  1.61035e+00
  2660    106.928  4.84088e+02 -2.10791e+03 -1.62383e+03  1.65705e+00
  2670    107.351  4.86000e+02 -2.10946e+03 -1.62346e+03  1.77491e+00
  2680    107.311  4.85821e+02 -2.10910e+03 -1.62328e+03  2.06835e+00
  2690    106.791  4.83468e+02 -2.10710e+03 -1.62363e+03  2.52276e+00
  2700    105.932  4.79576e+02 -2.10347e+03 -1.62390e+03  3.10657e+00
  2710    104.937  4.75074e+02 -2.10003e+03 -1.62496e+03  3.66292e+00
  2720    104.010  4.70876e+02 -2.09678e+03 -1.62591e+03  4.14222e+00
  2730    103.357  4.67919e+02 -2.09501e+03 -1.62709e+03  4.41656e+00
  2740    103.174  4.67090e+02 -2.09551e+03 -1.62842e+03  4.39836e+00
  2750    103.488  4.68515e+02 -2.09838e+03 -1.62986e+03  4.07904e+00
  2760    104.045  4.71036e+02 -2.10223e+03 -1.63119e+03  3.59155e+00
  2770    104.465  4.72936e+02 -2.10557e+03 -1.63263e+03  3.10037e+00
  2780    104.503  4.73109e+02 -2.10790e+03 -1.63479e+03  2.69150e+00
  2790    104.125  4.71396e+02 -2.10852e+03 -1.63712e+03  2.42552e+00
  2800    103.437  4.68284e+02 -2.10762e+03 -1.63933e+03  2.28219e+00
  2810    102.607  4.64526e+02 -2.10621e+03 -1.64168e+03  2.17569e+00
  2820    101.811  4.60923e+02 -2.10529e+03 -1.64437e+03  2.01713e+00
  2830    101.190  4.58110e+02 -2.10492e+03 -1.64681e+03  1.78190e+00
  2840    100.787  4.56287e+02 -2.10581e+03 -1.64952e+03  1.42287e+00
  2850    100.529  4.55116e+02 -2.10728e+03 -1.65217e+03  9.97969e-01
  2860    100.244  4.53828e+02 -2.10894e+03 -1.65511e+03  5.65530e-01
  2870     99.765  4.51657e+02 -2.10926e+03 -1.65761e+03  2.49863e-01
  2880     99.051  4.48428e+02 -2.10860e+03 -1.66017e+03  3.93386e-02
  2890     98.287  4.44965e+02 -2.10794e+03 -1.66297e+03 -1.54989e-01
  2900     97.799  4.42759e+02 -2.10841e+03 -1.66565e+03 -4.54367e-01
  2910     97.810  4.42810e+02 -2.11090e+03 -1.66809e+03 -9.45419e-01
  2920     98.250  4.44799e+02 -2.11513e+03 -1.67033e+03 -1.59759e+00
  2930     98.840  4.47470e+02 -2.12018e+03 -1.67271e+03 -2.30398e+00
  2940     99.295  4.49531e+02 -2.12461e+03 -1.67508e+03 -2.92249e+00
  2950     99.431  4.50145e+02 -2.12716e+03 -1.67702e+03 -3.33719e+00
  2960     99.183  4.49022e+02 -2.12821e+03 -1.67919e+03 -3.55645e+00
  2970     98.619  4.46469e+02 -2.12793e+03 -1.68146e+03 -3.60227e+00
  2980     97.906  4.43242e+02 -2.12652e+03 -1.68328e+03 -3.51677e+00
  2990     97.223  4.40150e+02 -2.12547e+03 -1.68532e+03 -3.42733e+00
  3000     96.673  4.37662e+02 -2.12463e+03 -1.68697e+03 -3.34715e+00
  3010     96.267  4.35824e+02 -2.12453e+03 -1.68870e+03 -3.31457e+00
  3020     95.959  4.34430e+02 -2.12441e+03 -1.68998e+03 -3.27694e+00
  3030     95.666  4.33103e+02 -2.12438e+03 -1.69127e+03 -3.22465e+00
  3040     95.282  4.31365e+02 -2.12370e+03 -1.69233e+03 -3.09400e+00
  3050     94.730  4.28863e+02 -2.12196e+03 -1.69310e+03 -2.84581e+00
  3060     94.009  4.25598e+02 -2.11949e+03 -1.69389e+03 -2.50206e+00
  3070     93.217  4.22015e+02 -2.11629e+03 -1.69428e+03 -2.08537e+00
  3080     92.514  4.18830e+02 -2.11348e+03 -1.69465e+03 -1.69745e+00
  3090     92.044  4.16702e+02 -2.11097e+03 -1.69427e+03 -1.36615e+00
  3100     91.894  4.16024e+02 -2.10972e+03 -1.69370e+03 -1.17254e+00
  3110     92.093  4.16925e+02 -2.10973e+03 -1.69281e+03 -1.12713e+00
  3120     92.637  4.19388e+02 -2.11098e+03 -1.69160e+03 -1.23033e+00
  3130     93.497  4.23280e+02 -2.11348e+03 -1.69020e+03 -1.47532e+00
  3140     94.598  4.28264e+02 -2.11650e+03 -1.68823e+03 -1.80080e+00
  3150     95.818  4.33792e+02 -2.11959e+03 -1.68580e+03 -2.15577e+00
  3160     97.034  4.39295e+02 -2.12289e+03 -1.68360e+03 -2.52253e+00
  3170     98.164  4.44409e+02 -2.12562e+03 -1.68121e+03 -2.83870e+00
  3180     99.199  4.49094e+02 -2.12744e+03 -1.67835e+03 -3.08194e+00
  3190    100.174  4.53512e+02 -2.12905e+03 -1.67554e+03 -3.30053e+00
  3200    101.122  4.57803e+02 -2.13041e+03 -1.67261e+03 -3.49739e+00
  3210    102.030  4.61913e+02 -2.13202e+03 -1.67010e+03 -3.70090e+00
  3220    102.851  4.65630e+02 -2.13307e+03 -1.66744e+03 -3.85414e+00
  3230    103.547  4.68782e+02 -2.13371e+03 -1.66493e+03 -3.95752e+00
  3240    104.141  4.71472e+02 -2.13401e+03 -1.66254e+03 -4.01596e+00
  3250    104.706  4.74027e+02 -2.13464e+03 -1.66062e+03 -4.07734e+00
  3260    105.279  4.76621e+02 -2.13514e+03 -1.65851e+03 -4.11510e+00
  3270    105.779  4.78884e+02 -2.13564e+03 -1.65675e+03 -4.12312e+00
  3280    106.053  4.80125e+02 -2.13550e+03 -1.65538e+03 -4.03773e+00
  3290    106.007  4.79916e+02 -2.13408e+03 -1.65416e+03 -3.80697e+00
  3300    105.667  4.78377e+02 -2.13163e+03 -1.65325e+03 -3.45458e+00
  3310    105.114  4.75874e+02 -2.12870e+03 -1.65283e+03 -3.03430e+00
  3320    104.420  4.72731e+02 -2.12502e+03 -1.65229e+03 -2.54832e+00
  3330    103.634  4.69174e+02 -2.12115e+03 -1.65198e+03 -2.05036e+00
  3340    102.828  4.65526e+02 -2.11768e+03 -1.65215e+03 -1.59785e+00
  3350    102.114  4.62291e+02 -2.11479e+03 -1.65249e+03 -1.23026e+00
  3360    101.626  4.60086e+02 -2.11267e+03 -1.65259e+03 -9.89333e-01
  3370    101.472  4.59387e+02 -2.11214e+03 -1.65275e+03 -9.44325e-01
  3380    101.671  4.60286e+02 -2.11325e+03 -1.65297e+03 -1.10242e+00
  3390    102.160  4.62503e+02 -2.11590e+03 -1.65339e+03 -1.44057e+00
  3400    102.822  4.65501e+02 -2.11918e+03 -1.65368e+03 -1.87556e+00
  3410    103.522  4.68667e+02 -2.12316e+03 -1.65449e+03 -2.37663e+00
  3420    104.124  4.71393e+02 -2.12687e+03 -1.65548e+03 -2.84885e+00
  3430    104.503  4.73111e+02 -2.12928e+03 -1.65617e+03 -3.19685e+00
  3440    104.545  4.73300e+02 -2.13060e+03 -1.65730e+03 -3.40635e+00
  3450    104.175  4.71623e+02 -2.13049e+03 -1.65887e+03 -3.44319e+00
  3460    103.409  4.68154e+02 -2.12834e+03 -1.66018e+03 -3.27514e+00
  3470    102.401  4.63594e+02 -2.12557e+03 -1.66198e+03 -3.02278e+00
  3480    101.419  4.59145e+02 -2.12280e+03 -1.66366e+03 -2.77420e+00
  3490    100.692  4.55856e+02 -2.12159e+03 -1.66573e+03 -2.66906e+00
  3500    100.265  4.53924e+02 -2.12148e+03 -1.66756e+03 -2.69369e+00
  3510    100.001  4.52726e+02 -2.12219e+03 -1.66947e+03 -2.81049e+00
  3520     99.722  4.51465e+02 -2.12270e+03 -1.67123e+03 -2.92749e+00
  3530     99.328  4.49678e+02 -2.12265e+03 -1.67297e+03 -3.00395e+00
  3540     98.800  4.47290e+02 -2.12205e+03 -1.67476e+03 -3.03430e+00
  3550     98.175  4.44462e+02 -2.12089e+03 -1.67643e+03 -3.02108e+00
  3560     97.514  4.41468e+02 -2.11967e+03 -1.67820e+03 -3.00430e+00
  3570     96.891  4.38648e+02 -2.11855e+03 -1.67990e+03 -3.00705e+00
  3580     96.390  4.36379e+02 -2.11772e+03 -1.68134e+03 -3.05310e+00
  3590     96.067  4.34915e+02 -2.11771e+03 -1.68279e+03 -3.18264e+00
  3600     95.906  4.34189e+02 -2.11820e+03 -1.68401e+03 -3.37107e+00
  3610     95.825  4.33820e+02 -2.11866e+03 -1.68484e+03 -3.56876e+00
  3620     95.722  4.33354e+02 -2.11868e+03 -1.68532e+03 -3.73061e+00
  3630     95.553  4.32591e+02 -2.11833e+03 -1.68574e+03 -3.85118e+00
  3640     95.369  4.31756e+02 -2.11797e+03 -1.68621e+03 -3.95817e+00
  3650     95.285  4.31376e+02 -2.11792e+03 -1.68655e+03 -4.08730e+00
  3660     95.385  4.31829e+02 -2.11828e+03 -1.68646e+03 -4.25429e+00
  3670     95.638  4.32976e+02 -2.11930e+03 -1.68632e+03 -4.46496e+00
  3680     95.949  4.34381e+02 -2.12015e+03 -1.68577e+03 -4.64899e+00
  3690     96.259  4.35785e+02 -2.12090e+03 -1.68512e+03 -4.79328e+00
  3700     96.563  4.37164e+02 -2.12128e+03 -1.68412e+03 -4.87447e+00
  3710     96.852  4.38471e+02 -2.12109e+03 -1.68262e+03 -4.87531e+00
  3720     97.068  4.39448e+02 -2.12090e+03 -1.68145e+03 -4.82357e+00
  3730     97.142  4.39782e+02 -2.12001e+03 -1.68023e+03 -4.67110e+00
  3740     97.056  4.39397e+02 -2.11810e+03 -1.67870e+03 -4.40414e+00
  3750     96.892  4.38653e+02 -2.11604e+03 -1.67738e+03 -4.10121e+00
  3760     96.829  4.38365e+02 -2.11355e+03 -1.67518e+03 -3.78643e+00
  3770     97.081  4.39506e+02 -2.11272e+03 -1.67322e+03 -3.63245e+00
  3780     97.776  4.42655e+02 -2.11375e+03 -1.67110e+03 -3.67634e+00
  3790     98.871  4.47611e+02 -2.11654e+03 -1.66893e+03 -3.90936e+00
  3800    100.204  4.53647e+02 -2.12042e+03 -1.66677e+03 -4.26175e+00
  3810    101.599  4.59964e+02 -2.12459e+03 -1.66462e+03 -4.65017e+00
  3820    102.916  4.65926e+02 -2.12846e+03 -1.66254e+03 -5.00744e+00
  3830    104.075  4.71172e+02 -2.13166e+03 -1.66049e+03 -5.28812e+00
  3840    105.061  4.75634e+02 -2.13417e+03 -1.65854e+03 -5.48063e+00
  3850    105.907  4.79465e+02 -2.13642e+03 -1.65696e+03 -5.61212e+00
  3860    106.629  4.82735e+02 -2.13835e+03 -1.65561e+03 -5.67585e+00
  3870    107.143  4.85061e+02 -2.13931e+03 -1.65425e+03 -5.62047e+00
  3880    107.287  4.85711e+02 -2.13915e+03 -1.65344e+03 -5.41289e+00
  3890    106.933  4.84109e+02 -2.13711e+03 -1.65300e+03 -4.99234e+00
  3900    106.117  4.80413e+02 -2.13331e+03 -1.65290e+03 -4.38017e+00
  3910    105.055  4.75609e+02 -2.12864e+03 -1.65304e+03 -3.67588e+00
  3920    104.032  4.70977e+02 -2.12437e+03 -1.65339e+03 -3.01212e+00
  3930    103.255  4.67458e+02 -2.12138e+03 -1.65392e+03 -2.48920e+00
  3940    102.816  4.65471e+02 -2.12014e+03 -1.65467e+03 -2.15746e+00
  3950    102.713  4.65006e+02 -2.12052e+03 -1.65551e+03 -2.01365e+00
  3960    102.861  4.65673e+02 -2.12202e+03 -1.65635e+03 -2.01016e+00
  3970    103.104  4.66774e+02 -2.12410e+03 -1.65733e+03 -2.08429e+00
  3980    103.280  4.67572e+02 -2.12635e+03 -1.65878e+03 -2.17627e+00
  3990    103.262  4.67492e+02 -2.12766e+03 -1.66017e+03 -2.19132e+00
  4000    102.962  4.66131e+02 -2.12812e+03 -1.66199e+03 -2.11614e+00
  4010    102.339  4.63311e+02 -2.12723e+03 -1.66392e+03 -1.91461e+00
  4020    101.438  4.59232e+02 -2.12482e+03 -1.66559e+03 -1.59095e+00
  4030    100.423  4.54638e+02 -2.12221e+03 -1.66757e+03 -1.25996e+00
  4040     99.544  4.50660e+02 -2.12019e+03 -1.66953e+03 -1.01752e+00
  4050     99.018  4.48276e+02 -2.11965e+03 -1.67137e+03 -9.55688e-01
  4060     98.912  4.47799e+02 -2.12084e+03 -1.67304e+03 -1.09922e+00
  4070     99.126  4.48765e+02 -2.12340e+03 -1.67464e+03 -1.40306e+00
  4080     99.455  4.50256e+02 -2.12664e+03 -1.67638e+03 -1.78021e+00
  4090     99.682  4.51284e+02 -2.12934e+03 -1.67806e+03 -2.11031e+00
  4100     99.636  4.51076e+02 -2.13079e+03 -1.67972e+03 -2.31260e+00
  4110     99.225  4.49214e+02 -2.13063e+03 -1.68141e+03 -2.34633e+00
  4120     98.454  4.45725e+02 -2.12884e+03 -1.68312e+03 -2.21661e+00
  4130     97.482  4.41323e+02 -2.12608e+03 -1.68475e+03 -1.99635e+00
  4140     96.626  4.37448e+02 -2.12375e+03 -1.68630e+03 -1.83266e+00
  4150     96.220  4.35609e+02 -2.12306e+03 -1.68745e+03 -1.85839e+00
  4160     96.397  4.36411e+02 -2.12497e+03 -1.68856e+03 -2.15500e+00
  4170     97.027  4.39265e+02 -2.12857e+03 -1.68930e+03 -2.64253e+00
  4180     97.835  4.42920e+02 -2.13294e+03 -1.69002e+03 -3.20970e+00
  4190     98.545  4.46135e+02 -2.13690e+03 -1.69077e+03 -3.72820e+00
  4200     98.990  4.48149e+02 -2.13933e+03 -1.69118e+03 -4.09341e+00
  4210     99.137  4.48816e+02 -2.14035e+03 -1.69153e+03 -4.30578e+00
  4220     99.096  4.48630e+02 -2.14071e+03 -1.69208e+03 -4.43312e+00
  4230     99.079  4.48554e+02 -2.14121e+03 -1.69266e+03 -4.56475e+00
  4240     99.303  4.49566e+02 -2.14246e+03 -1.69289e+03 -4.77761e+00
  4250     99.854  4.52063e+02 -2.14508e+03 -1.69301e+03 -5.12663e+00
  4260    100.654  4.55683e+02 -2.14911e+03 -1.69343e+03 -5.59844e+00
  4270    101.522  4.59611e+02 -2.15347e+03 -1.69385e+03 -6.08935e+00
  4280    102.263  4.62966e+02 -2.15703e+03 -1.69407e+03 -6.49289e+00
  4290    102.736  4.65108e+02 -2.15973e+03 -1.69462e+03 -6.77598e+00
  4300    102.897  4.65836e+02 -2.16106e+03 -1.69522e+03 -6.89772e+00
  4310    102.780  4.65306e+02 -2.16140e+03 -1.69609e+03 -6.88697e+00
  4320    102.440  4.63771e+02 -2.16067e+03 -1.69690e+03 -6.74949e+00
  4330    101.896  4.61305e+02 -2.15912e+03 -1.69781e+03 -6.50697e+00
  4340    101.122  4.57803e+02 -2.15645e+03 -1.69864e+03 -6.14306e+00
  4350    100.109  4.53218e+02 -2.15301e+03 -1.69979e+03 -5.68385e+00
  4360     98.923  4.47846e+02 -2.14871e+03 -1.70086e+03 -5.13964e+00
  4370     97.711  4.42361e+02 -2.14432e+03 -1.70195e+03 -4.58701e+00
  4380     96.664  4.37621e+02 -2.14041e+03 -1.70279e+03 -4.09691e+00
  4390     95.942  4.34349e+02 -2.13807e+03 -1.70372e+03 -3.76391e+00
  4400     95.609  4.32844e+02 -2.13698e+03 -1.70414e+03 -3.57806e+00
  4410     95.595  4.32779e+02 -2.13720e+03 -1.70442e+03 -3.52909e+00
  4420     95.707  4.33289e+02 -2.13749e+03 -1.70421e+03 -3.50647e+00
  4430     95.741  4.33439e+02 -2.13760e+03 -1.70416e+03 -3.45644e+00
  4440     95.614  4.32865e+02 -2.13683e+03 -1.70397e+03 -3.32027e+00
  4450     95.406  4.31925e+02 -2.13549e+03 -1.70356e+03 -3.12658e+00
  4460     95.257  4.31249e+02 -2.13446e+03 -1.70322e+03 -2.95286e+00
  4470     95.246  4.31198e+02 -2.13384e+03 -1.70264e+03 -2.81943e+00
  4480     95.386  4.31836e+02 -2.13335e+03 -1.70152e+03 -2.71612e+00
  4490     95.680  4.33164e+02 -2.13345e+03 -1.70029e+03 -2.67296e+00
  4500     96.130  4.35201e+02 -2.13415e+03 -1.69894e+03 -2.69238e+00
  4510     96.731  4.37924e+02 -2.13534e+03 -1.69742e+03 -2.76819e+00
  4520     97.464  4.41242e+02 -2.13690e+03 -1.69566e+03 -2.88737e+00
  4530     98.291  4.44985e+02 -2.13887e+03 -1.69389e+03 -3.04445e+00
  4540     99.125  4.48761e+02 -2.14066e+03 -1.69190e+03 -3.18646e+00
  4550     99.836  4.51978e+02 -2.14199e+03 -1.69001e+03 -3.27399e+00
  4560    100.307  4.54111e+02 -2.14209e+03 -1.68797e+03 -3.24235e+00
  4570    100.530  4.55123e+02 -2.14090e+03 -1.68578e+03 -3.09054e+00
  4580    100.638  4.55610e+02 -2.13944e+03 -1.68383e+03 -2.90625e+00
  4590    100.834  4.56499e+02 -2.13841e+03 -1.68191e+03 -2.77324e+00
  4600    101.271  4.58475e+02 -2.13836e+03 -1.67989e+03 -2.75404e+00
  4610    101.971  4.61645e+02 -2.13965e+03 -1.67801e+03 -2.87949e+00
  4620    102.857  4.65655e+02 -2.14194e+03 -1.67628e+03 -3.11844e+00
  4630    103.820  4.70018e+02 -2.14481e+03 -1.67479e+03 -3.42699e+00
  4640    104.766  4.74300e+02 -2.14736e+03 -1.67306e+03 -3.72856e+00
  4650    105.615  4.78142e+02 -2.14989e+03 -1.67175e+03 -4.02079e+00
  4660    106.302  4.81251e+02 -2.15209e+03 -1.67084e+03 -4.26286e+00
  4670    106.770  4.83370e+02 -2.15349e+03 -1.67012e+03 -4.40680e+00
  4680    106.931  4.84099e+02 -2.15368e+03 -1.66958e+03 -4.40408e+00
  4690    106.655  4.82853e+02 -2.15220e+03 -1.66935e+03 -4.20165e+00
  4700    105.865  4.79273e+02 -2.14853e+03 -1.66925e+03 -3.75406e+00
  4710    104.621  4.73645e+02 -2.14325e+03 -1.66961e+03 -3.11328e+00
  4720    103.134  4.66910e+02 -2.13714e+03 -1.67023e+03 -2.36721e+00
  4730    101.666  4.60266e+02 -2.13139e+03 -1.67112e+03 -1.64205e+00
  4740    100.427  4.54654e+02 -2.12658e+03 -1.67192e+03 -1.01658e+00
  4750     99.527  4.50583e+02 -2.12321e+03 -1.67263e+03 -5.46656e-01
  4760     99.023  4.48301e+02 -2.12173e+03 -1.67343e+03 -2.67942e-01
  4770     98.928  4.47869e+02 -2.12184e+03 -1.67397e+03 -1.59404e-01
  4780     99.141  4.48833e+02 -2.12343e+03 -1.67459e+03 -1.86693e-01
  4790     99.427  4.50127e+02 -2.12532e+03 -1.67519e+03 -2.31827e-01
  4800     99.553  4.50699e+02 -2.12646e+03 -1.67576e+03 -1.86395e-01
  4810     99.435  4.50163e+02 -2.12653e+03 -1.67636e+03 -1.29726e-02
  4820     99.118  4.48728e+02 -2.12560e+03 -1.67687e+03  2.76431e-01
  4830     98.693  4.46803e+02 -2.12412e+03 -1.67732e+03  6.35969e-01
  4840     98.254  4.44817e+02 -2.12240e+03 -1.67758e+03  1.02265e+00
  4850     97.898  4.43207e+02 -2.12140e+03 -1.67820e+03  1.35166e+00
  4860     97.706  4.42336e+02 -2.12081e+03 -1.67848e+03  1.62343e+00
  4870     97.701  4.42313e+02 -2.12103e+03 -1.67871e+03  1.80528e+00
  4880     97.813  4.42822e+02 -2.12139e+03 -1.67856e+03  1.94645e+00
  4890     97.901  4.43221e+02 -2.12159e+03 -1.67837e+03  2.08726e+00
  4900     97.840  4.42943e+02 -2.12105e+03 -1.67810e+03  2.28521e+00
  4910     97.608  4.41893e+02 -2.11953e+03 -1.67763e+03  2.55864e+00
  4920     97.293  4.40468e+02 -2.11748e+03 -1.67702e+03  2.86612e+00
  4930     97.022  4.39238e+02 -2.11584e+03 -1.67660e+03  3.12992e+00
  4940     96.871  4.38556e+02 -2.11480e+03 -1.67625e+03  3.32077e+00
  4950     96.861  4.38512e+02 -2.11403e+03 -1.67551e+03  3.45165e+00
  4960     97.017  4.39216e+02 -2.11387e+03 -1.67466e+03  3.49085e+00
  4970     97.394  4.40927e+02 -2.11425e+03 -1.67333e+03  3.43162e+00
  4980     98.050  4.43895e+02 -2.11584e+03 -1.67195e+03  3.22146e+00
  4990     98.985  4.48126e+02 -2.11870e+03 -1.67058e+03  2.85751e+00
  5000    100.140  4.53356e+02 -2.12264e+03 -1.66928e+03  2.36460e+00
  5010    101.422  4.59162e+02 -2.12705e+03 -1.66789e+03  1.80210e+00
  5020    102.697  4.64932e+02 -2.13158e+03 -1.66665e+03  1.22498e+00
  5030    103.782  4.69846e+02 -2.13535e+03 -1.66551e+03  7.24406e-01
  5040    104.531  4.73235e+02 -2.13791e+03 -1.66467e+03  3.58992e-01
  5050    104.934  4.75060e+02 -2.13898e+03 -1.66392e+03  1.49377e-01
  5060    105.122  4.75912e+02 -2.13924e+03 -1.66333e+03  3.46938e-02
  5070    105.257  4.76522e+02 -2.13962e+03 -1.66310e+03 -6.99447e-02
  5080    105.437  4.77337e+02 -2.14016e+03 -1.66282e+03 -1.84558e-01
  5090    105.661  4.78350e+02 -2.14116e+03 -1.66281e+03 -3.30523e-01
  5100    105.858  4.79244e+02 -2.14280e+03 -1.66355e+03 -5.06529e-01
  5110    105.936  4.79597e+02 -2.14357e+03 -1.66397e+03 -6.06245e-01
  5120    105.795  4.78958e+02 -2.14379e+03 -1.66483e+03 -6.33785e-01
  5130    105.321  4.76813e+02 -2.14311e+03 -1.66629e+03 -5.54582e-01
  5140    104.455  4.72890e+02 -2.14055e+03 -1.66766e+03 -3.07572e-01
  5150    103.320  4.67752e+02 -2.13688e+03 -1.66913e+03  3.19362e-02
  5160    102.164  4.62521e+02 -2.13344e+03 -1.67092e+03  3.36535e-01
  5170    101.125  4.57817e+02 -2.13063e+03 -1.67282e+03  5.53167e-01
  5180    100.188  4.53572e+02 -2.12828e+03 -1.67471e+03  6.90669e-01
  5190     99.354  4.49797e+02 -2.12636e+03 -1.67657e+03  7.46694e-01
  5200     98.727  4.46960e+02 -2.12536e+03 -1.67840e+03  6.75747e-01
  5210     98.459  4.45744e+02 -2.12587e+03 -1.68012e+03  4.17595e-01
  5220     98.639  4.46561e+02 -2.12866e+03 -1.68210e+03 -8.64326e-02
  5230     99.220  4.49190e+02 -2.13298e+03 -1.68379e+03 -7.76714e-01
  5240    100.020  4.52812e+02 -2.13826e+03 -1.68544e+03 -1.57754e+00
  5250    100.787  4.56284e+02 -2.14353e+03 -1.68724e+03 -2.37613e+00
  5260    101.265  4.58448e+02 -2.14753e+03 -1.68909e+03 -3.03927e+00
  5270    101.267  4.58460e+02 -2.14946e+03 -1.69100e+03 -3.47508e+00
  5280    100.740  4.56073e+02 -2.14902e+03 -1.69295e+03 -3.64900e+00
  5290     99.782  4.51735e+02 -2.14642e+03 -1.69469e+03 -3.58830e+00
  5300     98.599  4.46381e+02 -2.14285e+03 -1.69647e+03 -3.40277e+00
  5310     97.417  4.41031e+02 -2.13906e+03 -1.69802e+03 -3.18354e+00
  5320     96.418  4.36504e+02 -2.13611e+03 -1.69961e+03 -3.03627e+00
  5330     95.712  4.33308e+02 -2.13410e+03 -1.70079e+03 -2.99283e+00
  5340     95.338  4.31618e+02 -2.13389e+03 -1.70227e+03 -3.11687e+00
  5350     95.278  4.31345e+02 -2.13472e+03 -1.70338e+03 -3.35991e+00
  5360     95.461  4.32176e+02 -2.13653e+03 -1.70436e+03 -3.70252e+00
  5370     95.784  4.33634e+02 -2.13882e+03 -1.70518e+03 -4.08933e+00
  5380     96.134  4.35221e+02 -2.14056e+03 -1.70534e+03 -4.43180e+00
  5390     96.443  4.36618e+02 -2.14226e+03 -1.70564e+03 -4.73813e+00
  5400     96.687  4.37726e+02 -2.14364e+03 -1.70591e+03 -4.97634e+00
  5410     96.871  4.38557e+02 -2.14435e+03 -1.70579e+03 -5.11598e+00
  5420     96.984  4.39070e+02 -2.14456e+03 -1.70549e+03 -5.15912e+00
  5430     97.000  4.39140e+02 -2.14441e+03 -1.70527e+03 -5.10495e+00
  5440     96.871  4.38559e+02 -2.14323e+03 -1.70467e+03 -4.90400e+00
  5450     96.554  4.37123e+02 -2.14110e+03 -1.70397e+03 -4.55661e+00
  5460     96.039  4.34790e+02 -2.13817e+03 -1.70338e+03 -4.07844e+00
  5470     95.377  4.31794e+02 -2.13412e+03 -1.70232e+03 -3.46650e+00
  5480     94.666  4.28576e+02 -2.12964e+03 -1.70107e+03 -2.79338e+00
  5490     94.030  4.25695e+02 -2.12514e+03 -1.69945e+03 -2.11771e+00
  5500     93.615  4.23814e+02 -2.12155e+03 -1.69774e+03 -1.53281e+00
  5510     93.533  4.23445e+02 -2.11927e+03 -1.69582e+03 -1.09078e+00
  5520     93.802  4.24662e+02 -2.11823e+03 -1.69357e+03 -7.96303e-01
  5530     94.352  4.27154e+02 -2.11835e+03 -1.69120e+03 -6.34768e-01
  5540     95.102  4.30548e+02 -2.11895e+03 -1.68840e+03 -5.49963e-01
  5550     95.998  4.34605e+02 -2.11971e+03 -1.68511e+03 -5.08652e-01
  5560     97.004  4.39157e+02 -2.12126e+03 -1.68211e+03 -5.36905e-01
  5570     98.083  4.44045e+02 -2.12274e+03 -1.67869e+03 -5.69455e-01
  5580     99.202  4.49112e+02 -2.12406e+03 -1.67495e+03 -5.90157e-01
  5590    100.317  4.54157e+02 -2.12567e+03 -1.67151e+03 -6.14091e-01
  5600    101.357  4.58867e+02 -2.12673e+03 -1.66787e+03 -5.77272e-01
  5610    102.229  4.62815e+02 -2.12688e+03 -1.66406e+03 -4.44427e-01
  5620    102.870  4.65714e+02 -2.12632e+03 -1.66061e+03 -2.24693e-01
  5630    103.302  4.67671e+02 -2.12482e+03 -1.65715e+03  8.41868e-02
  5640    103.657  4.69278e+02 -2.12336e+03 -1.65408e+03  3.90121e-01
  5650    104.079  4.71189e+02 -2.12232e+03 -1.65114e+03  6.36947e-01
  5660    104.603  4.73563e+02 -2.12211e+03 -1.64854e+03  7.84857e-01
  5670    105.164  4.76100e+02 -2.12199e+03 -1.64589e+03  8.79728e-01
  5680    105.735  4.78686e+02 -2.12213e+03 -1.64344e+03  9.11472e-01
  5690    106.411  4.81748e+02 -2.12292e+03 -1.64118e+03  8.43254e-01
  5700    107.273  4.85647e+02 -2.12468e+03 -1.63904e+03  6.50554e-01
  5710    108.184  4.89771e+02 -2.12734e+03 -1.63757e+03  3.67948e-01
  5720    108.835  4.92719e+02 -2.12925e+03 -1.63653e+03  1.53065e-01
  5730    108.987  4.93407e+02 -2.12905e+03 -1.63564e+03  1.33904e-01
  5740    108.615  4.91725e+02 -2.12702e+03 -1.63530e+03  2.99444e-01
  5750    107.884  4.88413e+02 -2.12369e+03 -1.63528e+03  5.92801e-01
  5760    107.012  4.84466e+02 -2.12012e+03 -1.63565e+03  9.09501e-01
  5770    106.138  4.80510e+02 -2.11679e+03 -1.63628e+03  1.19132e+00
  5780    105.296  4.76698e+02 -2.11411e+03 -1.63741e+03  1.39989e+00
  5790    104.498  4.73086e+02 -2.11185e+03 -1.63876e+03  1.54039e+00
  5800    103.803  4.69939e+02 -2.11009e+03 -1.64015e+03  1.59538e+00
  5810    103.282  4.67583e+02 -2.10957e+03 -1.64199e+03  1.50760e+00
  5820    102.963  4.66137e+02 -2.10978e+03 -1.64365e+03  1.30539e+00
  5830    102.804  4.65415e+02 -2.11087e+03 -1.64545e+03  9.90131e-01
  5840    102.718  4.65028e+02 -2.11234e+03 -1.64731e+03  6.11047e-01
  5850    102.610  4.64539e+02 -2.11420e+03 -1.64966e+03  1.88468e-01
  5860    102.404  4.63604e+02 -2.11531e+03 -1.65171e+03 -1.89821e-01
  5870    102.063  4.62063e+02 -2.11626e+03 -1.65419e+03 -5.50129e-01
  5880    101.570  4.59830e+02 -2.11643e+03 -1.65660e+03 -8.50866e-01
  5890    100.912  4.56850e+02 -2.11621e+03 -1.65936e+03 -1.11329e+00
  5900    100.111  4.53225e+02 -2.11517e+03 -1.66194e+03 -1.31693e+00
  5910     99.266  4.49398e+02 -2.11392e+03 -1.66452e+03 -1.51868e+00
  5920     98.523  4.46034e+02 -2.11308e+03 -1.66704e+03 -1.78238e+00
  5930     98.001  4.43674e+02 -2.11296e+03 -1.66928e+03 -2.14805e+00
  5940     97.731  4.42450e+02 -2.11421e+03 -1.67176e+03 -2.66180e+00
  5950     97.669  4.42171e+02 -2.11622e+03 -1.67405e+03 -3.27711e+00
  5960     97.761  4.42587e+02 -2.11868e+03 -1.67609e+03 -3.96186e+00
  5970     97.980  4.43576e+02 -2.12153e+03 -1.67795e+03 -4.70091e+00
  5980     98.306  4.45052e+02 -2.12478e+03 -1.67973e+03 -5.48223e+00
  5990     98.674  4.46720e+02 -2.12813e+03 -1.68141e+03 -6.26864e+00
  6000     98.968  4.48051e+02 -2.13117e+03 -1.68312e+03 -7.00839e+00
  6010     99.077  4.48542e+02 -2.13320e+03 -1.68465e+03 -7.63469e+00
  6020     98.959  4.48010e+02 -2.13393e+03 -1.68592e+03 -8.11996e+00
  6030     98.664  4.46672e+02 -2.13415e+03 -1.68748e+03 -8.51734e+00
  6040     98.290  4.44983e+02 -2.13389e+03 -1.68891e+03 -8.84402e+00
  6050     97.936  4.43380e+02 -2.13385e+03 -1.69047e+03 -9.15766e+00
  6060     97.659  4.42123e+02 -2.13389e+03 -1.69177e+03 -9.45843e+00
  6070     97.478  4.41306e+02 -2.13435e+03 -1.69304e+03 -9.76706e+00
  6080     97.393  4.40921e+02 -2.13514e+03 -1.69422e+03 -1.00743e+01
  6090     97.388  4.40897e+02 -2.13591e+03 -1.69501e+03 -1.03505e+01
  6100     97.433  4.41103e+02 -2.13673e+03 -1.69563e+03 -1.05887e+01
  6110     97.480  4.41316e+02 -2.13787e+03 -1.69655e+03 -1.07907e+01
  6120     97.459  4.41218e+02 -2.13837e+03 -1.69716e+03 -1.08814e+01
  6130     97.285  4.40429e+02 -2.13828e+03 -1.69785e+03 -1.08446e+01
  6140     96.890  4.38642e+02 -2.13707e+03 -1.69843e+03 -1.06365e+01
  6150     96.248  4.35736e+02 -2.13467e+03 -1.69893e+03 -1.02469e+01
  6160     95.375  4.31786e+02 -2.13065e+03 -1.69886e+03 -9.65619e+00
  6170     94.315  4.26985e+02 -2.12587e+03 -1.69889e+03 -8.93007e+00
  6180     93.127  4.21607e+02 -2.12009e+03 -1.69849e+03 -8.07226e+00
  6190     91.897  4.16039e+02 -2.11382e+03 -1.69778e+03 -7.14090e+00
  6200     90.760  4.10890e+02 -2.10756e+03 -1.69666e+03 -6.20309e+00
  6210     89.894  4.06972e+02 -2.10259e+03 -1.69562e+03 -5.38256e+00
  6220     89.506  4.05214e+02 -2.09929e+03 -1.69407e+03 -4.74736e+00
  6230     89.764  4.06383e+02 -2.09804e+03 -1.69166e+03 -4.35652e+00
  6240     90.687  4.10562e+02 -2.09963e+03 -1.68907e+03 -4.26308e+00
  6250     92.102  4.16967e+02 -2.10301e+03 -1.68604e+03 -4.37141e+00
  6260     93.751  4.24431e+02 -2.10698e+03 -1.68255e+03 -4.55993e+00
  6270     95.441  4.32084e+02 -2.11078e+03 -1.67870e+03 -4.74068e+00
  6280     97.077  4.39487e+02 -2.11413e+03 -1.67464e+03 -4.87063e+00
  6290     98.619  4.46472e+02 -2.11675e+03 -1.67028e+03 -4.92000e+00
  6300    100.056  4.52975e+02 -2.11870e+03 -1.66573e+03 -4.88359e+00
  6310    101.361  4.58884e+02 -2.12008e+03 -1.66120e+03 -4.75989e+00
  6320    102.465  4.63883e+02 -2.12041e+03 -1.65653e+03 -4.50778e+00
  6330    103.256  4.67462e+02 -2.11963e+03 -1.65217e+03 -4.10671e+00
  6340    103.636  4.69185e+02 -2.11744e+03 -1.64826e+03 -3.52811e+00
  6350    103.622  4.69121e+02 -2.11314e+03 -1.64402e+03 -2.73940e+00
  6360    103.388  4.68061e+02 -2.10811e+03 -1.64005e+03 -1.86290e+00
  6370    103.203  4.67221e+02 -2.10386e+03 -1.63664e+03 -1.04256e+00
  6380    103.256  4.67465e+02 -2.10039e+03 -1.63292e+03 -3.16181e-01
  6390    103.574  4.68904e+02 -2.09831e+03 -1.62941e+03  2.69705e-01
  6400    104.070  4.71147e+02 -2.09717e+03 -1.62603e+03  7.56434e-01
  6410    104.634  4.73702e+02 -2.09646e+03 -1.62275e+03  1.19650e+00
  6420    105.161  4.76087e+02 -2.09583e+03 -1.61974e+03  1.63364e+00
  6430    105.555  4.77871e+02 -2.09489e+03 -1.61702e+03  2.11436e+00
  6440    105.741  4.78711e+02 -2.09348e+03 -1.61477e+03  2.66461e+00
  6450    105.685  4.78461e+02 -2.09072e+03 -1.61226e+03  3.34527e+00
  6460    105.413  4.77229e+02 -2.08750e+03 -1.61027e+03  4.09627e+00
  6470    105.005  4.75382e+02 -2.08418e+03 -1.60879e+03  4.87577e+00
  6480    104.564  4.73387e+02 -2.08056e+03 -1.60718e+03  5.67125e+00
  6490    104.158  4.71547e+02 -2.07743e+03 -1.60588e+03  6.41554e+00
  6500    103.782  4.69844e+02 -2.07464e+03 -1.60480e+03  7.10565e+00
  6510    103.394  4.68086e+02 -2.07210e+03 -1.60401e+03  7.74367e+00
  6520    102.977  4.66199e+02 -2.06944e+03 -1.60325e+03  8.34254e+00
  6530    102.564  4.64332e+02 -2.06731e+03 -1.60298e+03  8.84670e+00
  6540    102.226  4.62802e+02 -2.06522e+03 -1.60242e+03  9.25986e+00
  6550    102.079  4.62133e+02 -2.06426e+03 -1.60213e+03  9.48341e+00
  6560    102.299  4.63130e+02 -2.06538e+03 -1.60225e+03  9.41800e+00
  6570    103.075  4.66646e+02 -2.06890e+03 -1.60225e+03  9.00546e+00
  6580    104.502  4.73106e+02 -2.07538e+03 -1.60228e+03  8.19542e+00
  6590    106.494  4.82121e+02 -2.08490e+03 -1.60278e+03  7.00628e+00
  6600    108.780  4.92471e+02 -2.09561e+03 -1.60314e+03  5.61145e+00
  6610    110.987  5.02464e+02 -2.10669e+03 -1.60422e+03  4.14544e+00
  6620    112.764  5.10510e+02 -2.11638e+03 -1.60587e+03  2.79673e+00
  6630    113.898  5.15642e+02 -2.12378e+03 -1.60813e+03  1.68058e+00
  6640    114.325  5.17577e+02 -2.12902e+03 -1.61144e+03  8.16796e-01
  6650    114.068  5.16411e+02 -2.13172e+03 -1.61530e+03  2.39259e-01
  6660    113.163  5.12315e+02 -2.13208e+03 -1.61976e+03 -6.58758e-02
  6670    111.671  5.05558e+02 -2.13047e+03 -1.62492e+03 -1.31428e-01
  6680    109.703  4.96652e+02 -2.12724e+03 -1.63059e+03 -1.98661e-03
  6690    107.437  4.86391e+02 -2.12276e+03 -1.63637e+03  2.62198e-01
  6700    105.075  4.75697e+02 -2.11813e+03 -1.64244e+03  5.48343e-01
  6710    102.821  4.65493e+02 -2.11448e+03 -1.64898e+03  7.43485e-01
  6720    100.850  4.56569e+02 -2.11180e+03 -1.65523e+03  8.09276e-01
  6730     99.277  4.49448e+02 -2.11091e+03 -1.66147e+03  6.70561e-01
  6740     98.129  4.44252e+02 -2.11145e+03 -1.66720e+03  3.44298e-01
  6750     97.330  4.40636e+02 -2.11393e+03 -1.67329e+03 -1.86253e-01
  6760     96.748  4.37998e+02 -2.11716e+03 -1.67916e+03 -8.21838e-01
  6770     96.263  4.35803e+02 -2.12032e+03 -1.68452e+03 -1.48429e+00
  6780     95.806  4.33736e+02 -2.12345e+03 -1.68972e+03 -2.15642e+00
  6790     95.344  4.31643e+02 -2.12659e+03 -1.69495e+03 -2.82488e+00
  6800     94.846  4.29388e+02 -2.12929e+03 -1.69991e+03 -3.45027e+00
  6810     94.286  4.26855e+02 -2.13179e+03 -1.70493e+03 -4.03500e+00
  6820     93.659  4.24014e+02 -2.13328e+03 -1.70926e+03 -4.52367e+00
  6830     92.992  4.20996e+02 -2.13435e+03 -1.71335e+03 -4.95401e+00
  6840     92.378  4.18216e+02 -2.13531e+03 -1.71709e+03 -5.35705e+00
  6850     91.961  4.16330e+02 -2.13680e+03 -1.72047e+03 -5.79327e+00
  6860     91.868  4.15906e+02 -2.13975e+03 -1.72385e+03 -6.33502e+00
  6870     92.083  4.16882e+02 -2.14338e+03 -1.72650e+03 -6.92666e+00
  6880     92.433  4.18465e+02 -2.14754e+03 -1.72907e+03 -7.52410e+00
  6890     92.689  4.19626e+02 -2.15067e+03 -1.73105e+03 -7.99041e+00
  6900     92.701  4.19678e+02 -2.15259e+03 -1.73291e+03 -8.28349e+00
  6910     92.435  4.18472e+02 -2.15280e+03 -1.73433e+03 -8.36623e+00
  6920     91.960  4.16322e+02 -2.15198e+03 -1.73566e+03 -8.29484e+00
  6930     91.410  4.13834e+02 -2.15025e+03 -1.73642e+03 -8.10386e+00
  6940     90.926  4.11642e+02 -2.14844e+03 -1.73680e+03 -7.87329e+00
  6950     90.602  4.10177e+02 -2.14720e+03 -1.73702e+03 -7.66503e+00
  6960     90.454  4.09507e+02 -2.14608e+03 -1.73658e+03 -7.45941e+00
  6970     90.432  4.09404e+02 -2.14514e+03 -1.73574e+03 -7.25478e+00
  6980     90.468  4.09569e+02 -2.14413e+03 -1.73456e+03 -7.02982e+00
  6990     90.537  4.09881e+02 -2.14271e+03 -1.73283e+03 -6.76327e+00
  7000     90.674  4.10500e+02 -2.14145e+03 -1.73095e+03 -6.49815e+00
  7010     90.951  4.11754e+02 -2.14047e+03 -1.72871e+03 -6.25730e+00
  7020     91.428  4.13913e+02 -2.13967e+03 -1.72575e+03 -6.04725e+00
  7030     92.111  4.17007e+02 -2.13956e+03 -1.72256e+03 -5.90157e+00
  7040     92.945  4.20782e+02 -2.13992e+03 -1.71914e+03 -5.79739e+00
  7050     93.881  4.25020e+02 -2.14059e+03 -1.71557e+03 -5.71664e+00
  7060     94.951  4.29863e+02 -2.14134e+03 -1.71148e+03 -5.64825e+00
  7070     96.230  4.35654e+02 -2.14276e+03 -1.70711e+03 -5.63746e+00
  7080     97.696  4.42290e+02 -2.14462e+03 -1.70233e+03 -5.66296e+00
  7090     99.197  4.49087e+02 -2.14666e+03 -1.69758e+03 -5.68295e+00
  7100    100.581  4.55354e+02 -2.14815e+03 -1.69279e+03 -5.62651e+00
  7110    101.793  4.60841e+02 -2.14862e+03 -1.68778e+03 -5.45674e+00
  7120    102.841  4.65582e+02 -2.14864e+03 -1.68306e+03 -5.20971e+00
  7130    103.745  4.69677e+02 -2.14796e+03 -1.67828e+03 -4.87819e+00
  7140    104.542  4.73284e+02 -2.14704e+03 -1.67375e+03 -4.50181e+00
  7150    105.282  4.76635e+02 -2.14600e+03 -1.66936e+03 -4.10193e+00
  7160    106.007  4.79917e+02 -2.14486e+03 -1.66495e+03 -3.69031e+00
  7170    106.699  4.83051e+02 -2.14428e+03 -1.66123e+03 -3.30593e+00
  7180    107.277  4.85666e+02 -2.14317e+03 -1.65751e+03 -2.86993e+00
  7190    107.608  4.87164e+02 -2.14116e+03 -1.65400e+03 -2.33825e+00
  7200    107.552  4.86910e+02 -2.13794e+03 -1.65103e+03 -1.67094e+00
  7210    107.037  4.84582e+02 -2.13309e+03 -1.64850e+03 -8.35899e-01
  7220    106.145  4.80543e+02 -2.12670e+03 -1.64615e+03  1.40642e-01
  7230    105.068  4.75665e+02 -2.11988e+03 -1.64421e+03  1.14937e+00
  7240    103.954  4.70623e+02 -2.11311e+03 -1.64249e+03  2.12204e+00
  7250    102.894  4.65822e+02 -2.10677e+03 -1.64094e+03  3.00535e+00
  7260    102.016  4.61848e+02 -2.10117e+03 -1.63932e+03  3.74377e+00
  7270    101.503  4.59529e+02 -2.09735e+03 -1.63782e+03  4.23765e+00
  7280    101.520  4.59602e+02 -2.09609e+03 -1.63649e+03  4.41199e+00
  7290    102.125  4.62341e+02 -2.09771e+03 -1.63536e+03  4.24398e+00
  7300    103.212  4.67265e+02 -2.10173e+03 -1.63447e+03  3.78866e+00
  7310    104.537  4.73262e+02 -2.10675e+03 -1.63348e+03  3.18514e+00
  7320    105.825  4.79095e+02 -2.11192e+03 -1.63282e+03  2.54185e+00
  7330    106.872  4.83832e+02 -2.11610e+03 -1.63226e+03  1.97292e+00
  7340    107.604  4.87147e+02 -2.11908e+03 -1.63193e+03  1.51182e+00
  7350    108.102  4.89402e+02 -2.12138e+03 -1.63198e+03  1.12084e+00
  7360    108.517  4.91281e+02 -2.12407e+03 -1.63279e+03  7.16853e-01
  7370    108.918  4.93095e+02 -2.12717e+03 -1.63407e+03  2.89089e-01
  7380    109.248  4.94592e+02 -2.13007e+03 -1.63548e+03 -1.15097e-01
  7390    109.419  4.95364e+02 -2.13296e+03 -1.63759e+03 -4.91421e-01
  7400    109.398  4.95269e+02 -2.13534e+03 -1.64008e+03 -8.00524e-01
  7410    109.208  4.94408e+02 -2.13754e+03 -1.64313e+03 -1.06076e+00
  7420    108.849  4.92782e+02 -2.13912e+03 -1.64634e+03 -1.23989e+00
  7430    108.233  4.89993e+02 -2.14031e+03 -1.65031e+03 -1.33368e+00
  7440    107.209  4.85360e+02 -2.13976e+03 -1.65440e+03 -1.23283e+00
  7450    105.657  4.78331e+02 -2.13690e+03 -1.65857e+03 -8.84357e-01
  7460    103.570  4.68886e+02 -2.13198e+03 -1.66310e+03 -3.07852e-01
  7470    101.102  4.57713e+02 -2.12567e+03 -1.66796e+03  4.17771e-01
  7480     98.563  4.46217e+02 -2.11895e+03 -1.67273e+03  1.16523e+00
  7490     96.371  4.36294e+02 -2.11324e+03 -1.67695e+03  1.76062e+00
  7500     94.917  4.29711e+02 -2.11086e+03 -1.68114e+03  1.98267e+00
  7510     94.370  4.27233e+02 -2.11219e+03 -1.68496e+03  1.76683e+00
  7520     94.597  4.28261e+02 -2.11693e+03 -1.68867e+03  1.14693e+00
  7530     95.300  4.31447e+02 -2.12355e+03 -1.69210e+03  2.65668e-01
  7540     96.177  4.35416e+02 -2.13077e+03 -1.69536e+03 -7.40928e-01
  7550     96.983  4.39064e+02 -2.13749e+03 -1.69843e+03 -1.75359e+00
  7560     97.566  4.41703e+02 -2.14315e+03 -1.70144e+03 -2.69989e+00
  7570     97.896  4.43198e+02 -2.14768e+03 -1.70448e+03 -3.55903e+00
  7580     98.064  4.43958e+02 -2.15115e+03 -1.70719e+03 -4.33796e+00
  7590     98.208  4.44609e+02 -2.15460e+03 -1.70999e+03 -5.11407e+00
  7600     98.422  4.45580e+02 -2.15827e+03 -1.71269e+03 -5.90743e+00
  7610     98.705  4.46861e+02 -2.16197e+03 -1.71511e+03 -6.69543e+00
  7620     98.975  4.48082e+02 -2.16577e+03 -1.71769e+03 -7.45810e+00
  7630     99.114  4.48711e+02 -2.16875e+03 -1.72004e+03 -8.10715e+00
  7640     99.013  4.48253e+02 -2.17093e+03 -1.72267e+03 -8.61207e+00
  7650     98.582  4.46305e+02 -2.17113e+03 -1.72483e+03 -8.87620e+00
  7660     97.759  4.42576e+02 -2.16968e+03 -1.72710e+03 -8.90172e+00
  7670     96.538  4.37047e+02 -2.16615e+03 -1.72910e+03 -8.66217e+00
  7680     95.017  4.30165e+02 -2.16127e+03 -1.73110e+03 -8.22100e+00
  7690     93.414  4.22906e+02 -2.15578e+03 -1.73287e+03 -7.66700e+00
  7700     92.003  4.16519e+02 -2.15065e+03 -1.73413e+03 -7.11229e+00
  7710     90.984  4.11907e+02 -2.14699e+03 -1.73508e+03 -6.66388e+00
  7720     90.379  4.09166e+02 -2.14506e+03 -1.73589e+03 -6.34660e+00
  7730     90.069  4.07763e+02 -2.14372e+03 -1.73596e+03 -6.07244e+00
  7740     89.906  4.07024e+02 -2.14254e+03 -1.73552e+03 -5.78573e+00
  7750     89.762  4.06372e+02 -2.14146e+03 -1.73509e+03 -5.45566e+00
  7760     89.544  4.05385e+02 -2.13950e+03 -1.73412e+03 -5.00246e+00
  7770     89.220  4.03921e+02 -2.13674e+03 -1.73282e+03 -4.42220e+00
  7780     88.834  4.02172e+02 -2.13341e+03 -1.73123e+03 -3.73457e+00
  7790     88.451  4.00437e+02 -2.12904e+03 -1.72860e+03 -2.92578e+00
  7800     88.112  3.98905e+02 -2.12472e+03 -1.72581e+03 -2.07550e+00
  7810     87.854  3.97733e+02 -2.12015e+03 -1.72242e+03 -1.18220e+00
  7820     87.748  3.97253e+02 -2.11614e+03 -1.71888e+03 -3.19623e-01
  7830     87.901  3.97946e+02 -2.11268e+03 -1.71474e+03  4.80223e-01
  7840     88.419  4.00295e+02 -2.11037e+03 -1.71007e+03  1.15196e+00
  7850     89.362  4.04562e+02 -2.10946e+03 -1.70490e+03  1.65830e+00
  7860     90.709  4.10662e+02 -2.10995e+03 -1.69929e+03  1.99584e+00
  7870     92.387  4.18255e+02 -2.11136e+03 -1.69311e+03  2.20045e+00
  7880     94.305  4.26941e+02 -2.11346e+03 -1.68652e+03  2.29872e+00
  7890     96.389  4.36373e+02 -2.11586e+03 -1.67949e+03  2.32592e+00
  7900     98.579  4.46288e+02 -2.11856e+03 -1.67227e+03  2.29079e+00
  7910    100.839  4.56522e+02 -2.12140e+03 -1.66488e+03  2.20966e+00
  7920    103.143  4.66951e+02 -2.12412e+03 -1.65717e+03  2.10468e+00
  7930    105.431  4.77308e+02 -2.12696e+03 -1.64966e+03  1.97311e+00
  7940    107.582  4.87047e+02 -2.12920e+03 -1.64215e+03  1.88276e+00
  7950    109.445  4.95484e+02 -2.12995e+03 -1.63447e+03  1.91785e+00
  7960    110.895  5.02046e+02 -2.12940e+03 -1.62736e+03  2.09358e+00
  7970    111.853  5.06384e+02 -2.12721e+03 -1.62083e+03  2.44677e+00
  7980    112.282  5.08327e+02 -2.12316e+03 -1.61484e+03  2.99791e+00
  7990    112.201  5.07958e+02 -2.11737e+03 -1.60941e+03  3.73303e+00
  8000    111.738  5.05862e+02 -2.11031e+03 -1.60445e+03  4.59270e+00
  8010    111.162  5.03257e+02 -2.10340e+03 -1.60014e+03  5.43753e+00
  8020    110.808  5.01652e+02 -2.09820e+03 -1.59655e+03  6.10797e+00
  8030    110.919  5.02154e+02 -2.09549e+03 -1.59334e+03  6.50992e+00
  8040    111.519  5.04870e+02 -2.09574e+03 -1.59087e+03  6.60799e+00
  8050    112.406  5.08887e+02 -2.09793e+03 -1.58904e+03  6.49702e+00
  8060    113.275  5.12821e+02 -2.10055e+03 -1.58773e+03  6.32306e+00
  8070    113.850  5.15426e+02 -2.10269e+03 -1.58726e+03  6.19278e+00
  8080    113.965  5.15947e+02 -2.10335e+03 -1.58740e+03  6.19856e+00
  8090    113.611  5.14341e+02 -2.10251e+03 -1.58817e+03  6.34571e+00
  8100    112.904  5.11142e+02 -2.10103e+03 -1.58989e+03  6.56360e+00
  8110    111.974  5.06932e+02 -2.09873e+03 -1.59179e+03  6.84056e+00
  8120    110.886  5.02007e+02 -2.09644e+03 -1.59443e+03  7.11070e+00
  8130    109.683  4.96560e+02 -2.09402e+03 -1.59746e+03  7.37469e+00
  8140    108.440  4.90931e+02 -2.09219e+03 -1.60126e+03  7.57781e+00
  8150    107.228  4.85444e+02 -2.09072e+03 -1.60527e+03  7.72513e+00
  8160    106.035  4.80045e+02 -2.08930e+03 -1.60925e+03  7.84160e+00
  8170    104.742  4.74189e+02 -2.08810e+03 -1.61391e+03  7.93612e+00
  8180    103.196  4.67193e+02 -2.08565e+03 -1.61846e+03  8.12089e+00
  8190    101.370  4.58926e+02 -2.08226e+03 -1.62333e+03  8.38070e+00
  8200     99.434  4.50160e+02 -2.07810e+03 -1.62794e+03  8.67608e+00
  8210     97.681  4.42225e+02 -2.07478e+03 -1.63255e+03  8.85998e+00
  8220     96.379  4.36329e+02 -2.07314e+03 -1.63681e+03  8.83404e+00
  8230     95.677  4.33152e+02 -2.07405e+03 -1.64090e+03  8.51641e+00
  8240     95.615  4.32871e+02 -2.07764e+03 -1.64477e+03  7.89190e+00
  8250     96.138  4.35236e+02 -2.08379e+03 -1.64855e+03  6.97836e+00
  8260     97.082  4.39511e+02 -2.09172e+03 -1.65221e+03  5.85738e+00
  8270     98.209  4.44616e+02 -2.10042e+03 -1.65580e+03  4.64290e+00
  8280     99.293  4.49522e+02 -2.10873e+03 -1.65921e+03  3.45636e+00
  8290    100.160  4.53449e+02 -2.11623e+03 -1.66278e+03  2.36855e+00
  8300    100.669  4.55752e+02 -2.12224e+03 -1.66649e+03  1.45628e+00
  8310    100.701  4.55898e+02 -2.12609e+03 -1.67020e+03  7.89747e-01
  8320    100.208  4.53663e+02 -2.12752e+03 -1.67386e+03  3.96724e-01
  8330     99.259  4.49366e+02 -2.12663e+03 -1.67726e+03  2.58389e-01
  8340     98.053  4.43909e+02 -2.12455e+03 -1.68064e+03  2.66198e-01
  8350     96.864  4.38526e+02 -2.12276e+03 -1.68423e+03  2.77840e-01
  8360     95.926  4.34280e+02 -2.12195e+03 -1.68767e+03  2.02944e-01
  8370     95.330  4.31582e+02 -2.12192e+03 -1.69034e+03  3.00862e-02
  8380     95.013  4.30145e+02 -2.12345e+03 -1.69331e+03 -2.86257e-01
  8390     94.854  4.29424e+02 -2.12512e+03 -1.69570e+03 -6.43672e-01
  8400     94.759  4.28997e+02 -2.12701e+03 -1.69801e+03 -1.03621e+00
  8410     94.677  4.28623e+02 -2.12893e+03 -1.70030e+03 -1.44563e+00
  8420     94.577  4.28171e+02 -2.13019e+03 -1.70202e+03 -1.82918e+00
  8430     94.473  4.27699e+02 -2.13133e+03 -1.70363e+03 -2.22535e+00
  8440     94.452  4.27605e+02 -2.13259e+03 -1.70499e+03 -2.66362e+00
  8450     94.625  4.28391e+02 -2.13451e+03 -1.70612e+03 -3.19175e+00
  8460     95.003  4.30100e+02 -2.13737e+03 -1.70727e+03 -3.82202e+00
  8470     95.488  4.32296e+02 -2.14022e+03 -1.70792e+03 -4.47319e+00
  8480     96.004  4.34634e+02 -2.14307e+03 -1.70843e+03 -5.12217e+00
  8490     96.542  4.37067e+02 -2.14596e+03 -1.70889e+03 -5.75547e+00
  8500     97.087  4.39533e+02 -2.14863e+03 -1.70910e+03 -6.34005e+00
  8510     97.553  4.41645e+02 -2.15086e+03 -1.70921e+03 -6.83338e+00
  8520     97.784  4.42692e+02 -2.15177e+03 -1.70907e+03 -7.14561e+00
  8530     97.628  4.41984e+02 -2.15080e+03 -1.70881e+03 -7.20832e+00
  8540     96.999  4.39136e+02 -2.14778e+03 -1.70864e+03 -6.99277e+00
  8550     95.923  4.34265e+02 -2.14274e+03 -1.70847e+03 -6.50654e+00
  8560     94.549  4.28043e+02 -2.13604e+03 -1.70799e+03 -5.80424e+00
  8570     93.141  4.21670e+02 -2.12855e+03 -1.70688e+03 -4.99831e+00
  8580     92.043  4.16698e+02 -2.12265e+03 -1.70596e+03 -4.30571e+00
  8590     91.579  4.14599e+02 -2.11916e+03 -1.70457e+03 -3.84424e+00
  8600     91.924  4.16162e+02 -2.11883e+03 -1.70267e+03 -3.69533e+00
  8610     92.989  4.20984e+02 -2.12160e+03 -1.70062e+03 -3.84274e+00
  8620     94.450  4.27596e+02 -2.12545e+03 -1.69785e+03 -4.10540e+00
  8630     95.912  4.34215e+02 -2.12920e+03 -1.69499e+03 -4.34083e+00
  8640     97.073  4.39472e+02 -2.13168e+03 -1.69220e+03 -4.42164e+00
  8650     97.790  4.42718e+02 -2.13151e+03 -1.68879e+03 -4.24094e+00
  8660     98.087  4.44060e+02 -2.12960e+03 -1.68554e+03 -3.86404e+00
  8670     98.140  4.44302e+02 -2.12614e+03 -1.68183e+03 -3.34232e+00
  8680     98.199  4.44567e+02 -2.12265e+03 -1.67808e+03 -2.82220e+00
  8690     98.425  4.45592e+02 -2.12011e+03 -1.67452e+03 -2.40000e+00
  8700     98.791  4.47248e+02 -2.11806e+03 -1.67081e+03 -2.05091e+00
  8710     99.162  4.48930e+02 -2.11613e+03 -1.66720e+03 -1.73569e+00
  8720     99.480  4.50367e+02 -2.11377e+03 -1.66340e+03 -1.41428e+00
  8730     99.844  4.52015e+02 -2.11162e+03 -1.65961e+03 -1.14117e+00
  8740    100.452  4.54770e+02 -2.11060e+03 -1.65583e+03 -9.99978e-01
  8750    101.456  4.59314e+02 -2.11147e+03 -1.65216e+03 -1.05761e+00
  8760    102.847  4.65612e+02 -2.11390e+03 -1.64828e+03 -1.28532e+00
  8770    104.449  4.72863e+02 -2.11737e+03 -1.64450e+03 -1.61795e+00
  8780    106.023  4.79992e+02 -2.12117e+03 -1.64118e+03 -1.96660e+00
  8790    107.380  4.86134e+02 -2.12408e+03 -1.63794e+03 -2.21928e+00
  8800    108.404  4.90769e+02 -2.12586e+03 -1.63509e+03 -2.33740e+00
  8810    109.019  4.93553e+02 -2.12605e+03 -1.63249e+03 -2.27776e+00
  8820    109.155  4.94168e+02 -2.12476e+03 -1.63059e+03 -2.03776e+00
  8830    108.785  4.92495e+02 -2.12113e+03 -1.62864e+03 -1.56489e+00
  8840    108.004  4.88957e+02 -2.11611e+03 -1.62716e+03 -9.40468e-01
  8850    107.075  4.84752e+02 -2.11062e+03 -1.62587e+03 -2.72352e-01
  8860    106.351  4.81473e+02 -2.10706e+03 -1.62559e+03  2.26909e-01
  8870    106.057  4.80146e+02 -2.10540e+03 -1.62526e+03  5.16549e-01
  8880    106.148  4.80554e+02 -2.10570e+03 -1.62515e+03  5.95860e-01
  8890    106.368  4.81552e+02 -2.10703e+03 -1.62548e+03  5.60393e-01
  8900    106.462  4.81975e+02 -2.10804e+03 -1.62607e+03  5.32365e-01
  8910    106.308  4.81282e+02 -2.10820e+03 -1.62692e+03  5.65168e-01
  8920    105.935  4.79592e+02 -2.10762e+03 -1.62803e+03  6.48486e-01
  8930    105.451  4.77400e+02 -2.10683e+03 -1.62943e+03  7.32241e-01
  8940    104.972  4.75233e+02 -2.10662e+03 -1.63139e+03  7.49876e-01
  8950    104.567  4.73400e+02 -2.10662e+03 -1.63322e+03  7.14525e-01
  8960    104.223  4.71840e+02 -2.10711e+03 -1.63527e+03  6.17258e-01
  8970    103.856  4.70178e+02 -2.10783e+03 -1.63766e+03  4.93003e-01
  8980    103.358  4.67927e+02 -2.10820e+03 -1.64027e+03  4.05004e-01
  8990    102.651  4.64726e+02 -2.10765e+03 -1.64293e+03  4.08614e-01
  9000    101.731  4.60557e+02 -2.10611e+03 -1.64556e+03  5.14407e-01
  9010    100.711  4.55941e+02 -2.10440e+03 -1.64845e+03  6.58131e-01
  9020     99.782  4.51734e+02 -2.10305e+03 -1.65131e+03  7.77282e-01
  9030     99.092  4.48610e+02 -2.10293e+03 -1.65432e+03  7.94992e-01
  9040     98.657  4.46642e+02 -2.10368e+03 -1.65704e+03  7.30311e-01
  9050     98.366  4.45323e+02 -2.10488e+03 -1.65955e+03  6.28694e-01
  9060     98.060  4.43940e+02 -2.10616e+03 -1.66222e+03  5.39908e-01
  9070     97.592  4.41821e+02 -2.10609e+03 -1.66427e+03  5.79759e-01
  9080     96.861  4.38512e+02 -2.10520e+03 -1.66669e+03  7.34219e-01
  9090     95.852  4.33942e+02 -2.10261e+03 -1.66867e+03  1.05890e+00
  9100     94.681  4.28640e+02 -2.09919e+03 -1.67055e+03  1.47644e+00
  9110     93.566  4.23593e+02 -2.09578e+03 -1.67219e+03  1.89450e+00
  9120     92.723  4.19779e+02 -2.09321e+03 -1.67343e+03  2.21913e+00
  9130     92.260  4.17683e+02 -2.09202e+03 -1.67434e+03  2.39273e+00
  9140     92.151  4.17189e+02 -2.09237e+03 -1.67518e+03  2.40527e+00
  9150     92.297  4.17850e+02 -2.09356e+03 -1.67571e+03  2.31274e+00
  9160     92.602  4.19232e+02 -2.09470e+03 -1.67547e+03  2.18466e+00
  9170     93.021  4.21127e+02 -2.09644e+03 -1.67532e+03  1.99133e+00
  9180     93.546  4.23502e+02 -2.09839e+03 -1.67489e+03  1.76039e+00
  9190     94.177  4.26362e+02 -2.10026e+03 -1.67389e+03  1.51062e+00
  9200     94.906  4.29662e+02 -2.10245e+03 -1.67279e+03  1.22193e+00
  9210     95.719  4.33342e+02 -2.10515e+03 -1.67180e+03  8.87679e-01
  9220     96.622  4.37430e+02 -2.10797e+03 -1.67054e+03  5.33757e-01
  9230     97.637  4.42024e+02 -2.11084e+03 -1.66881e+03  1.65775e-01
  9240     98.771  4.47157e+02 -2.11395e+03 -1.66679e+03 -2.26287e-01
  9250     99.979  4.52626e+02 -2.11758e+03 -1.66496e+03 -6.46720e-01
  9260    101.145  4.57905e+02 -2.12110e+03 -1.66319e+03 -1.03484e+00
  9270    102.109  4.62268e+02 -2.12335e+03 -1.66108e+03 -1.29312e+00
  9280    102.723  4.65049e+02 -2.12441e+03 -1.65936e+03 -1.40485e+00
  9290    102.909  4.65894e+02 -2.12334e+03 -1.65745e+03 -1.30554e+00
  9300    102.699  4.64940e+02 -2.12094e+03 -1.65600e+03 -1.05720e+00
  9310    102.240  4.62864e+02 -2.11771e+03 -1.65485e+03 -7.27677e-01
  9320    101.755  4.60668e+02 -2.11431e+03 -1.65364e+03 -4.03941e-01
  9330    101.461  4.59336e+02 -2.11210e+03 -1.65276e+03 -2.14304e-01
  9340    101.501  4.59519e+02 -2.11100e+03 -1.65148e+03 -1.83960e-01
  9350    101.896  4.61304e+02 -2.11163e+03 -1.65033e+03 -3.53135e-01
  9360    102.515  4.64106e+02 -2.11328e+03 -1.64918e+03 -6.53194e-01
  9370    103.149  4.66979e+02 -2.11511e+03 -1.64813e+03 -9.91586e-01
  9380    103.618  4.69102e+02 -2.11670e+03 -1.64760e+03 -1.30509e+00
  9390    103.829  4.70057e+02 -2.11725e+03 -1.64719e+03 -1.52050e+00
  9400    103.792  4.69892e+02 -2.11655e+03 -1.64666e+03 -1.62156e+00
  9410    103.602  4.69028e+02 -2.11537e+03 -1.64634e+03 -1.66727e+00
  9420    103.365  4.67955e+02 -2.11410e+03 -1.64615e+03 -1.69782e+00
  9430    103.128  4.66884e+02 -2.11307e+03 -1.64618e+03 -1.74094e+00
  9440    102.887  4.65793e+02 -2.11242e+03 -1.64663e+03 -1.80580e+00
  9450    102.626  4.64610e+02 -2.11173e+03 -1.64712e+03 -1.86522e+00
  9460    102.338  4.63308e+02 -2.11093e+03 -1.64762e+03 -1.91582e+00
  9470    102.043  4.61970e+02 -2.11022e+03 -1.64825e+03 -1.97311e+00
  9480    101.793  4.60841e+02 -2.10989e+03 -1.64905e+03 -2.06459e+00
  9490    101.663  4.60249e+02 -2.11002e+03 -1.64977e+03 -2.20787e+00
  9500    101.711  4.60470e+02 -2.11106e+03 -1.65059e+03 -2.44164e+00
  9510    101.954  4.61569e+02 -2.11303e+03 -1.65146e+03 -2.76718e+00
  9520    102.340  4.63315e+02 -2.11577e+03 -1.65245e+03 -3.16477e+00
  9530    102.753  4.65188e+02 -2.11887e+03 -1.65368e+03 -3.58659e+00
  9540    103.064  4.66594e+02 -2.12166e+03 -1.65507e+03 -3.96637e+00
  9550    103.166  4.67054e+02 -2.12363e+03 -1.65658e+03 -4.25072e+00
  9560    103.023  4.66407e+02 -2.12456e+03 -1.65815e+03 -4.41873e+00
  9570    102.703  4.64959e+02 -2.12464e+03 -1.65968e+03 -4.49389e+00
  9580    102.352  4.63369e+02 -2.12489e+03 -1.66152e+03 -4.56473e+00
  9590    102.121  4.62326e+02 -2.12542e+03 -1.66310e+03 -4.66586e+00
  9600    102.102  4.62240e+02 -2.12727e+03 -1.66503e+03 -4.87636e+00
  9610    102.283  4.63058e+02 -2.12994e+03 -1.66688e+03 -5.16349e+00
  9620    102.542  4.64232e+02 -2.13307e+03 -1.66883e+03 -5.48140e+00
  9630    102.668  4.64802e+02 -2.13579e+03 -1.67099e+03 -5.73676e+00
  9640    102.425  4.63701e+02 -2.13712e+03 -1.67342e+03 -5.82587e+00
  9650    101.664  4.60255e+02 -2.13598e+03 -1.67572e+03 -5.65635e+00
  9660    100.424  4.54641e+02 -2.13306e+03 -1.67842e+03 -5.27759e+00
  9670     98.934  4.47898e+02 -2.12882e+03 -1.68093e+03 -4.75905e+00
  9680     97.489  4.41356e+02 -2.12442e+03 -1.68307e+03 -4.22288e+00
  9690     96.261  4.35794e+02 -2.12138e+03 -1.68559e+03 -3.79505e+00
  9700     95.214  4.31056e+02 -2.11859e+03 -1.68753e+03 -3.40574e+00
  9710     94.198  4.26453e+02 -2.11602e+03 -1.68957e+03 -3.03021e+00
  9720     93.101  4.21489e+02 -2.11226e+03 -1.69077e+03 -2.56360e+00
  9730     91.954  4.16297e+02 -2.10830e+03 -1.69200e+03 -2.07136e+00
  9740     90.923  4.11629e+02 -2.10459e+03 -1.69296e+03 -1.60909e+00
  9750     90.232  4.08498e+02 -2.10226e+03 -1.69376e+03 -1.28481e+00
  9760     90.055  4.07700e+02 -2.10174e+03 -1.69404e+03 -1.15591e+00
  9770     90.437  4.09428e+02 -2.10312e+03 -1.69369e+03 -1.23354e+00
  9780     91.269  4.13194e+02 -2.10617e+03 -1.69298e+03 -1.48218e+00
  9790     92.351  4.18092e+02 -2.10955e+03 -1.69145e+03 -1.77837e+00
  9800     93.477  4.23192e+02 -2.11290e+03 -1.68971e+03 -2.05910e+00
  9810     94.495  4.27802e+02 -2.11581e+03 -1.68801e+03 -2.26433e+00
  9820     95.317  4.31520e+02 -2.11757e+03 -1.68605e+03 -2.33129e+00
  9830     95.904  4.34179e+02 -2.11813e+03 -1.68395e+03 -2.25034e+00
  9840     96.264  4.35808e+02 -2.11755e+03 -1.68174e+03 -2.03090e+00
  9850     96.457  4.36683e+02 -2.11581e+03 -1.67913e+03 -1.69034e+00
  9860     96.597  4.37315e+02 -2.11345e+03 -1.67614e+03 -1.28920e+00
  9870     96.818  4.38316e+02 -2.11146e+03 -1.67315e+03 -9.20425e-01
  9880     97.216  4.40121e+02 -2.11019e+03 -1.67007e+03 -6.28249e-01
  9890     97.800  4.42765e+02 -2.10979e+03 -1.66702e+03 -4.30506e-01
  9900     98.503  4.45945e+02 -2.10968e+03 -1.66374e+03 -2.83159e-01
  9910     99.235  4.49261e+02 -2.10986e+03 -1.66060e+03 -1.70700e-01
  9920     99.941  4.52457e+02 -2.10967e+03 -1.65722e+03 -4.22052e-02
  9930    100.613  4.55498e+02 -2.10912e+03 -1.65362e+03  1.07319e-01
  9940    101.263  4.58439e+02 -2.10856e+03 -1.65013e+03  2.57412e-01
  9950    101.883  4.61246e+02 -2.10775e+03 -1.64650e+03  4.29810e-01
  9960    102.427  4.63711e+02 -2.10691e+03 -1.64320e+03  6.20037e-01
  9970    102.831  4.65539e+02 -2.10513e+03 -1.63959e+03  8.97110e-01
  9980    103.047  4.66515e+02 -2.10296e+03 -1.63644e+03  1.23421e+00
  9990    103.076  4.66647e+02 -2.10009e+03 -1.63345e+03  1.64528e+00
