Step    T(K)      KE(kJ)        PE(kJ)       TotE(kJ)
     0      0.151  6.84625e-01 -1.63103e+03 -1.63034e+03
    10      0.241  1.08930e+00 -1.63143e+03 -1.63034e+03
    20      0.469  2.12450e+00 -1.63246e+03 -1.63033e+03
    30      0.834  3.77783e+00 -1.63409e+03 -1.63031e+03
    40      1.332  6.02993e+00 -1.63630e+03 -1.63027e+03
    50      1.956  8.85601e+00 -1.63904e+03 -1.63018e+03
    60      2.701  1.22276e+01 -1.64226e+03 -1.63004e+03
    70      3.560  1.61147e+01 -1.64592e+03 -1.62980e+03
    80      4.525  2.04878e+01 -1.64995e+03 -1.62946e+03
    90      5.593  2.53202e+01 -1.65429e+03 -1.62897e+03
   100      6.757  3.05896e+01 -1.65889e+03 -1.62831e+03
   110      8.014  3.62799e+01 -1.66371e+03 -1.62743e+03
   120      9.362  4.23822e+01 -1.66869e+03 -1.62631e+03
   130     10.800  4.88961e+01 -1.67380e+03 -1.62490e+03
   140     12.332  5.58304e+01 -1.67888e+03 -1.62305e+03
   150     13.960  6.32022e+01 -1.68414e+03 -1.62094e+03
   160     15.691  7.10372e+01 -1.68918e+03 -1.61814e+03
   170     17.533  7.93751e+01 -1.69393e+03 -1.61456e+03
   180     19.495  8.82569e+01 -1.69900e+03 -1.61074e+03
   190     21.587  9.77304e+01 -1.70425e+03 -1.60652e+03
   200     23.824  1.07855e+02 -1.70861e+03 -1.60076e+03
   210     26.221  1.18707e+02 -1.71153e+03 -1.59282e+03
   220     28.797  1.30368e+02 -1.71349e+03 -1.58312e+03
   230     31.568  1.42916e+02 -1.71687e+03 -1.57396e+03
   240     34.552  1.56424e+02 -1.72162e+03 -1.56520e+03
   250     37.766  1.70975e+02 -1.72677e+03 -1.55580e+03
   260     41.232  1.86667e+02 -1.73163e+03 -1.54496e+03
   270     44.974  2.03606e+02 -1.73651e+03 -1.53291e+03
   280     49.016  2.21905e+02 -1.74096e+03 -1.51905e+03
   290     53.385  2.41686e+02 -1.74481e+03 -1.50313e+03
   300     58.111  2.63081e+02 -1.74834e+03 -1.48526e+03
   310     63.223  2.86224e+02 -1.75223e+03 -1.46600e+03
   320     68.751  3.11251e+02 -1.75625e+03 -1.44500e+03
   330     74.728  3.38308e+02 -1.75989e+03 -1.42159e+03
   340     81.188  3.67555e+02 -1.76284e+03 -1.39528e+03
   350     88.168  3.99154e+02 -1.76486e+03 -1.36570e+03
   360     95.704  4.33274e+02 -1.76654e+03 -1.33326e+03
   370    103.833  4.70077e+02 -1.76818e+03 -1.29811e+03
   380    112.592  5.09728e+02 -1.76963e+03 -1.25991e+03
   390    122.014  5.52387e+02 -1.77040e+03 -1.21802e+03
   400    132.135  5.98207e+02 -1.77089e+03 -1.17268e+03
   410    142.987  6.47333e+02 -1.77050e+03 -1.12316e+03
   420    154.596  6.99890e+02 -1.76976e+03 -1.06987e+03
   430    166.985  7.55977e+02 -1.76855e+03 -1.01258e+03
   440    180.168  8.15662e+02 -1.76639e+03 -9.50729e+02
   450    194.151  8.78967e+02 -1.76359e+03 -8.84619e+02
   460    208.925  9.45852e+02 -1.76032e+03 -8.14471e+02
   470    224.465  1.01620e+03 -1.75665e+03 -7.40443e+02
   480    240.726  1.08982e+03 -1.75217e+03 -6.62353e+02
   490    257.640  1.16639e+03 -1.74666e+03 -5.80265e+02
   500    275.110  1.24548e+03 -1.74030e+03 -4.94814e+02
   510    293.007  1.32651e+03 -1.73277e+03 -4.06264e+02
   520    311.165  1.40872e+03 -1.72457e+03 -3.15853e+02
   530    329.380  1.49118e+03 -1.71524e+03 -2.24065e+02
   540    347.406  1.57278e+03 -1.70495e+03 -1.32163e+02
   550    364.964  1.65227e+03 -1.69284e+03 -4.05614e+01
   560    381.763  1.72833e+03 -1.67932e+03  4.90077e+01
   570    397.524  1.79968e+03 -1.66396e+03  1.35718e+02
   580    412.020  1.86531e+03 -1.64704e+03  2.18266e+02
   590    425.097  1.92451e+03 -1.62878e+03  2.95728e+02
   600    436.674  1.97692e+03 -1.61000e+03  3.66918e+02
   610    446.692  2.02227e+03 -1.59251e+03  4.29764e+02
   620    455.053  2.06013e+03 -1.57692e+03  4.83211e+02
   630    461.606  2.08979e+03 -1.56329e+03  5.26500e+02
   640    466.200  2.11059e+03 -1.55152e+03  5.59066e+02
   650    468.753  2.12215e+03 -1.54180e+03  5.80357e+02
   660    469.277  2.12452e+03 -1.53428e+03  5.90246e+02
   670    467.833  2.11798e+03 -1.52863e+03  5.89351e+02
   680    464.486  2.10283e+03 -1.52558e+03  5.77253e+02
   690    459.275  2.07924e+03 -1.52504e+03  5.54199e+02
   700    452.219  2.04730e+03 -1.52657e+03  5.20729e+02
   710    443.337  2.00709e+03 -1.52958e+03  4.77506e+02
   720    432.682  1.95885e+03 -1.53325e+03  4.25601e+02
   730    420.359  1.90306e+03 -1.53681e+03  3.66255e+02
   740    406.532  1.84046e+03 -1.54027e+03  3.00194e+02
   750    391.421  1.77205e+03 -1.54363e+03  2.28420e+02
   760    375.283  1.69899e+03 -1.54627e+03  1.52722e+02
   770    358.396  1.62254e+03 -1.54849e+03  7.40454e+01
   780    341.036  1.54395e+03 -1.55029e+03 -6.34135e+00
   790    323.465  1.46440e+03 -1.55190e+03 -8.75017e+01
   800    305.923  1.38498e+03 -1.55357e+03 -1.68593e+02
   810    288.621  1.30665e+03 -1.55525e+03 -2.48599e+02
   820    271.739  1.23023e+03 -1.55722e+03 -3.27000e+02
   830    255.424  1.15636e+03 -1.55975e+03 -4.03386e+02
   840    239.785  1.08556e+03 -1.56251e+03 -4.76953e+02
   850    224.901  1.01818e+03 -1.56567e+03 -5.47492e+02
   860    210.821  9.54435e+02 -1.56923e+03 -6.14796e+02
   870    197.567  8.94431e+02 -1.57343e+03 -6.79003e+02
   880    185.139  8.38168e+02 -1.57797e+03 -7.39798e+02
   890    173.523  7.85576e+02 -1.58286e+03 -7.97286e+02
   900    162.691  7.36540e+02 -1.58795e+03 -8.51413e+02
   910    152.612  6.90908e+02 -1.59309e+03 -9.02180e+02
   920    143.249  6.48522e+02 -1.59860e+03 -9.50074e+02
   930    134.568  6.09222e+02 -1.60426e+03 -9.95038e+02
   940    126.536  5.72856e+02 -1.60991e+03 -1.03705e+03
   950    119.121  5.39286e+02 -1.61578e+03 -1.07650e+03
   960    112.299  5.08402e+02 -1.62172e+03 -1.11332e+03
   970    106.053  4.80125e+02 -1.62806e+03 -1.14793e+03
   980    100.371  4.54404e+02 -1.63465e+03 -1.18024e+03
   990     95.246  4.31199e+02 -1.64155e+03 -1.21035e+03
  1000     90.665  4.10460e+02 -1.64913e+03 -1.23867e+03
  1010     86.609  3.92096e+02 -1.65742e+03 -1.26532e+03
  1020     83.046  3.75967e+02 -1.66628e+03 -1.29031e+03
  1030     79.933  3.61875e+02 -1.67580e+03 -1.31393e+03
  1040     77.221  3.49596e+02 -1.68576e+03 -1.33617e+03
  1050     74.857  3.38896e+02 -1.69612e+03 -1.35723e+03
  1060     72.794  3.29556e+02 -1.70715e+03 -1.37759e+03
  1070     70.990  3.21388e+02 -1.71826e+03 -1.39687e+03
  1080     69.409  3.14231e+02 -1.72955e+03 -1.41532e+03
  1090     68.022  3.07953e+02 -1.74079e+03 -1.43284e+03
  1100     66.807  3.02452e+02 -1.75215e+03 -1.44969e+03
  1110     65.745  2.97643e+02 -1.76353e+03 -1.46589e+03
  1120     64.822  2.93462e+02 -1.77501e+03 -1.48155e+03
  1130     64.025  2.89857e+02 -1.78628e+03 -1.49643e+03
  1140     63.347  2.86788e+02 -1.79737e+03 -1.51059e+03
  1150     62.781  2.84225e+02 -1.80878e+03 -1.52455e+03
  1160     62.321  2.82139e+02 -1.81993e+03 -1.53779e+03
  1170     61.962  2.80515e+02 -1.83103e+03 -1.55052e+03
  1180     61.701  2.79335e+02 -1.84220e+03 -1.56287e+03
  1190     61.537  2.78591e+02 -1.85330e+03 -1.57471e+03
  1200     61.467  2.78275e+02 -1.86439e+03 -1.58611e+03
  1210     61.490  2.78379e+02 -1.87536e+03 -1.59698e+03
  1220     61.606  2.78902e+02 -1.88635e+03 -1.60745e+03
  1230     61.812  2.79835e+02 -1.89761e+03 -1.61777e+03
  1240     62.106  2.81169e+02 -1.90863e+03 -1.62746e+03
  1250     62.486  2.82886e+02 -1.91968e+03 -1.63679e+03
  1260     62.943  2.84959e+02 -1.93075e+03 -1.64579e+03
  1270     63.472  2.87351e+02 -1.94186e+03 -1.65451e+03
  1280     64.060  2.90015e+02 -1.95284e+03 -1.66282e+03
  1290     64.697  2.92898e+02 -1.96376e+03 -1.67086e+03
  1300     65.369  2.95942e+02 -1.97452e+03 -1.67858e+03
  1310     66.064  2.99087e+02 -1.98504e+03 -1.68595e+03
  1320     66.767  3.02268e+02 -1.99530e+03 -1.69303e+03
  1330     67.464  3.05424e+02 -2.00524e+03 -1.69982e+03
  1340     68.142  3.08494e+02 -2.01468e+03 -1.70619e+03
  1350     68.788  3.11419e+02 -2.02347e+03 -1.71205e+03
  1360     69.390  3.14146e+02 -2.03164e+03 -1.71749e+03
  1370     69.940  3.16632e+02 -2.03944e+03 -1.72281e+03
  1380     70.430  3.18851e+02 -2.04648e+03 -1.72762e+03
  1390     70.859  3.20795e+02 -2.05272e+03 -1.73192e+03
  1400     71.231  3.22480e+02 -2.05832e+03 -1.73584e+03
  1410     71.557  3.23955e+02 -2.06345e+03 -1.73950e+03
  1420     71.854  3.25299e+02 -2.06800e+03 -1.74270e+03
  1430     72.145  3.26616e+02 -2.07203e+03 -1.74541e+03
  1440     72.457  3.28030e+02 -2.07586e+03 -1.74783e+03
  1450     72.818  3.29664e+02 -2.07951e+03 -1.74985e+03
  1460     73.253  3.31634e+02 -2.08295e+03 -1.75131e+03
  1470     73.781  3.34025e+02 -2.08629e+03 -1.75226e+03
  1480     74.414  3.36890e+02 -2.08990e+03 -1.75301e+03
  1490     75.157  3.40251e+02 -2.09347e+03 -1.75322e+03
  1500     76.008  3.44104e+02 -2.09719e+03 -1.75309e+03
  1510     76.962  3.48424e+02 -2.10075e+03 -1.75232e+03
  1520     78.012  3.53177e+02 -2.10450e+03 -1.75132e+03
  1530     79.148  3.58320e+02 -2.10810e+03 -1.74978e+03
  1540     80.361  3.63812e+02 -2.11161e+03 -1.74780e+03
  1550     81.640  3.69602e+02 -2.11509e+03 -1.74549e+03
  1560     82.973  3.75637e+02 -2.11817e+03 -1.74254e+03
  1570     84.346  3.81854e+02 -2.12107e+03 -1.73921e+03
  1580     85.745  3.88187e+02 -2.12347e+03 -1.73529e+03
  1590     87.153  3.94559e+02 -2.12544e+03 -1.73088e+03
  1600     88.554  4.00903e+02 -2.12703e+03 -1.72613e+03
  1610     89.938  4.07168e+02 -2.12813e+03 -1.72096e+03
  1620     91.299  4.13330e+02 -2.12839e+03 -1.71506e+03
  1630     92.639  4.19398e+02 -2.12811e+03 -1.70871e+03
  1640     93.969  4.25421e+02 -2.12746e+03 -1.70204e+03
  1650     95.307  4.31478e+02 -2.12617e+03 -1.69469e+03
  1660     96.676  4.37674e+02 -2.12474e+03 -1.68707e+03
  1670     98.101  4.44127e+02 -2.12280e+03 -1.67867e+03
  1680     99.610  4.50958e+02 -2.12067e+03 -1.66971e+03
  1690    101.228  4.58282e+02 -2.11887e+03 -1.66058e+03
  1700    102.979  4.66207e+02 -2.11687e+03 -1.65066e+03
  1710    104.883  4.74830e+02 -2.11495e+03 -1.64012e+03
  1720    106.960  4.84230e+02 -2.11332e+03 -1.62909e+03
  1730    109.225  4.94485e+02 -2.11196e+03 -1.61747e+03
  1740    111.692  5.05655e+02 -2.11097e+03 -1.60532e+03
  1750    114.373  5.17793e+02 -2.11040e+03 -1.59261e+03
  1760    117.273  5.30922e+02 -2.11026e+03 -1.57934e+03
  1770    120.392  5.45042e+02 -2.11055e+03 -1.56551e+03
  1780    123.721  5.60113e+02 -2.11100e+03 -1.55088e+03
  1790    127.243  5.76056e+02 -2.11159e+03 -1.53554e+03
  1800    130.929  5.92745e+02 -2.11229e+03 -1.51955e+03
  1810    134.743  6.10011e+02 -2.11271e+03 -1.50270e+03
  1820    138.639  6.27652e+02 -2.11312e+03 -1.48547e+03
  1830    142.571  6.45449e+02 -2.11312e+03 -1.46767e+03
  1840    146.488  6.63184e+02 -2.11229e+03 -1.44910e+03
  1850    150.348  6.80657e+02 -2.11059e+03 -1.42994e+03
  1860    154.117  6.97724e+02 -2.10827e+03 -1.41054e+03
  1870    157.784  7.14326e+02 -2.10487e+03 -1.39054e+03
  1880    161.358  7.30506e+02 -2.10082e+03 -1.37031e+03
  1890    164.866  7.46388e+02 -2.09598e+03 -1.34959e+03
  1900    168.335  7.62092e+02 -2.09062e+03 -1.32853e+03
  1910    171.769  7.77639e+02 -2.08503e+03 -1.30739e+03
  1920    175.132  7.92862e+02 -2.07904e+03 -1.28618e+03
  1930    178.350  8.07432e+02 -2.07209e+03 -1.26466e+03
  1940    181.333  8.20935e+02 -2.06449e+03 -1.24356e+03
  1950    183.998  8.32999e+02 -2.05540e+03 -1.22240e+03
  1960    186.297  8.43407e+02 -2.04491e+03 -1.20150e+03
  1970    188.231  8.52166e+02 -2.03301e+03 -1.18084e+03
  1980    189.857  8.59527e+02 -2.02007e+03 -1.16054e+03
  1990    191.277  8.65954e+02 -2.00649e+03 -1.14053e+03
  2000    192.618  8.72023e+02 -1.99294e+03 -1.12091e+03
  2010    193.997  8.78269e+02 -1.98009e+03 -1.10182e+03
  2020    195.496  8.85054e+02 -1.96834e+03 -1.08329e+03
  2030    197.139  8.92493e+02 -1.95747e+03 -1.06498e+03
  2040    198.905  9.00486e+02 -1.94806e+03 -1.04758e+03
  2050    200.742  9.08803e+02 -1.93935e+03 -1.03055e+03
  2060    202.597  9.17203e+02 -1.93134e+03 -1.01414e+03
  2070    204.433  9.25513e+02 -1.92383e+03 -9.98319e+02
  2080    206.237  9.33682e+02 -1.91701e+03 -9.83325e+02
  2090    208.022  9.41764e+02 -1.91098e+03 -9.69218e+02
  2100    209.814  9.49874e+02 -1.90561e+03 -9.55740e+02
  2110    211.631  9.58101e+02 -1.90132e+03 -9.43217e+02
  2120    213.474  9.66444e+02 -1.89810e+03 -9.31652e+02
  2130    215.312  9.74764e+02 -1.89573e+03 -9.20970e+02
  2140    217.080  9.82770e+02 -1.89399e+03 -9.11221e+02
  2150    218.687  9.90046e+02 -1.89236e+03 -9.02315e+02
  2160    220.029  9.96121e+02 -1.89099e+03 -8.94866e+02
  2170    221.010  1.00056e+03 -1.88878e+03 -8.88216e+02
  2180    221.563  1.00306e+03 -1.88603e+03 -8.82968e+02
  2190    221.663  1.00352e+03 -1.88236e+03 -8.78844e+02
  2200    221.338  1.00205e+03 -1.87780e+03 -8.75758e+02
  2210    220.657  9.98963e+02 -1.87305e+03 -8.74086e+02
  2220    219.717  9.94707e+02 -1.86822e+03 -8.73511e+02
  2230    218.619  9.89737e+02 -1.86389e+03 -8.74150e+02
  2240    217.446  9.84428e+02 -1.86052e+03 -8.76093e+02
  2250    216.252  9.79021e+02 -1.85809e+03 -8.79068e+02
  2260    215.057  9.73613e+02 -1.85670e+03 -8.83085e+02
  2270    213.856  9.68174e+02 -1.85612e+03 -8.87949e+02
  2280    212.618  9.62572e+02 -1.85618e+03 -8.93611e+02
  2290    211.293  9.56569e+02 -1.85683e+03 -9.00257e+02
  2300    209.808  9.49847e+02 -1.85782e+03 -9.07971e+02
  2310    208.094  9.42086e+02 -1.85877e+03 -9.16686e+02
  2320    206.111  9.33110e+02 -1.85918e+03 -9.26070e+02
  2330    203.884  9.23029e+02 -1.85939e+03 -9.36363e+02
  2340    201.515  9.12305e+02 -1.85947e+03 -9.47163e+02
  2350    199.164  9.01659e+02 -1.86041e+03 -9.58751e+02
  2360    196.984  8.91792e+02 -1.86289e+03 -9.71103e+02
  2370    195.050  8.83037e+02 -1.86690e+03 -9.83860e+02
  2380    193.310  8.75157e+02 -1.87241e+03 -9.97258e+02
  2390    191.611  8.67464e+02 -1.87849e+03 -1.01103e+03
  2400    189.778  8.59168e+02 -1.88451e+03 -1.02534e+03
  2410    187.691  8.49717e+02 -1.88972e+03 -1.04000e+03
  2420    185.314  8.38960e+02 -1.89385e+03 -1.05489e+03
  2430    182.694  8.27097e+02 -1.89753e+03 -1.07043e+03
  2440    179.918  8.14528e+02 -1.90039e+03 -1.08587e+03
  2450    177.084  8.01698e+02 -1.90304e+03 -1.10134e+03
  2460    174.277  7.88989e+02 -1.90624e+03 -1.11725e+03
  2470    171.555  7.76670e+02 -1.90999e+03 -1.13332e+03
  2480    168.951  7.64880e+02 -1.91413e+03 -1.14924e+03
  2490    166.469  7.53641e+02 -1.91877e+03 -1.16513e+03
  2500    164.093  7.42884e+02 -1.92393e+03 -1.18105e+03
  2510    161.795  7.32483e+02 -1.92943e+03 -1.19695e+03
  2520    159.544  7.22293e+02 -1.93497e+03 -1.21268e+03
  2530    157.315  7.12198e+02 -1.94047e+03 -1.22828e+03
  2540    155.091  7.02132e+02 -1.94613e+03 -1.24400e+03
  2550    152.870  6.92079e+02 -1.95116e+03 -1.25908e+03
  2560    150.656  6.82053e+02 -1.95618e+03 -1.27413e+03
  2570    148.449  6.72064e+02 -1.96109e+03 -1.28903e+03
  2580    146.244  6.62081e+02 -1.96590e+03 -1.30382e+03
  2590    144.022  6.52018e+02 -1.97036e+03 -1.31834e+03
  2600    141.752  6.41744e+02 -1.97429e+03 -1.33254e+03
  2610    139.405  6.31119e+02 -1.97723e+03 -1.34611e+03
  2620    136.963  6.20062e+02 -1.97981e+03 -1.35975e+03
  2630    134.429  6.08592e+02 -1.98136e+03 -1.37277e+03
  2640    131.838  5.96859e+02 -1.98235e+03 -1.38549e+03
  2650    129.246  5.85124e+02 -1.98282e+03 -1.39770e+03
  2660    126.728  5.73727e+02 -1.98321e+03 -1.40948e+03
  2670    124.364  5.63022e+02 -1.98396e+03 -1.42094e+03
  2680    122.222  5.53327e+02 -1.98527e+03 -1.43194e+03
  2690    120.355  5.44876e+02 -1.98719e+03 -1.44232e+03
  2700    118.791  5.37791e+02 -1.99042e+03 -1.45262e+03
  2710    117.532  5.32094e+02 -1.99436e+03 -1.46227e+03
  2720    116.564  5.27711e+02 -1.99919e+03 -1.47148e+03
  2730    115.853  5.24495e+02 -2.00478e+03 -1.48028e+03
  2740    115.356  5.22242e+02 -2.01108e+03 -1.48884e+03
  2750    115.020  5.20719e+02 -2.01755e+03 -1.49683e+03
  2760    114.792  5.19689e+02 -2.02472e+03 -1.50504e+03
  2770    114.625  5.18935e+02 -2.03174e+03 -1.51280e+03
  2780    114.480  5.18278e+02 -2.03837e+03 -1.52009e+03
  2790    114.329  5.17595e+02 -2.04465e+03 -1.52706e+03
  2800    114.160  5.16828e+02 -2.05074e+03 -1.53391e+03
  2810    113.970  5.15968e+02 -2.05613e+03 -1.54016e+03
  2820    113.766  5.15042e+02 -2.06122e+03 -1.54617e+03
  2830    113.557  5.14096e+02 -2.06614e+03 -1.55204e+03
  2840    113.351  5.13167e+02 -2.07073e+03 -1.55757e+03
  2850    113.154  5.12272e+02 -2.07488e+03 -1.56261e+03
  2860    112.959  5.11391e+02 -2.07861e+03 -1.56722e+03
  2870    112.758  5.10481e+02 -2.08217e+03 -1.57169e+03
  2880    112.539  5.09489e+02 -2.08508e+03 -1.57560e+03
  2890    112.290  5.08360e+02 -2.08759e+03 -1.57923e+03
  2900    112.002  5.07056e+02 -2.08974e+03 -1.58268e+03
  2910    111.671  5.05562e+02 -2.09130e+03 -1.58574e+03
  2920    111.301  5.03885e+02 -2.09255e+03 -1.58866e+03
  2930    110.896  5.02053e+02 -2.09306e+03 -1.59101e+03
  2940    110.468  5.00112e+02 -2.09311e+03 -1.59300e+03
  2950    110.026  4.98113e+02 -2.09293e+03 -1.59481e+03
  2960    109.583  4.96109e+02 -2.09234e+03 -1.59623e+03
  2970    109.152  4.94155e+02 -2.09166e+03 -1.59750e+03
  2980    108.744  4.92308e+02 -2.09066e+03 -1.59836e+03
  2990    108.373  4.90628e+02 -2.08945e+03 -1.59883e+03
  3000    108.054  4.89185e+02 -2.08812e+03 -1.59894e+03
  3010    107.805  4.88056e+02 -2.08668e+03 -1.59862e+03
  3020    107.646  4.87340e+02 -2.08536e+03 -1.59802e+03
  3030    107.602  4.87140e+02 -2.08434e+03 -1.59720e+03
  3040    107.697  4.87567e+02 -2.08342e+03 -1.59585e+03
  3050    107.950  4.88715e+02 -2.08280e+03 -1.59408e+03
  3060    108.377  4.90647e+02 -2.08264e+03 -1.59200e+03
  3070    108.980  4.93378e+02 -2.08296e+03 -1.58958e+03
  3080    109.750  4.96864e+02 -2.08383e+03 -1.58697e+03
  3090    110.668  5.01020e+02 -2.08482e+03 -1.58380e+03
  3100    111.709  5.05731e+02 -2.08611e+03 -1.58037e+03
  3110    112.846  5.10878e+02 -2.08741e+03 -1.57653e+03
  3120    114.052  5.16339e+02 -2.08872e+03 -1.57238e+03
  3130    115.304  5.22008e+02 -2.09003e+03 -1.56802e+03
  3140    116.582  5.27792e+02 -2.09074e+03 -1.56295e+03
  3150    117.867  5.33611e+02 -2.09149e+03 -1.55788e+03
  3160    119.147  5.39406e+02 -2.09173e+03 -1.55233e+03
  3170    120.412  5.45133e+02 -2.09151e+03 -1.54637e+03
  3180    121.657  5.50769e+02 -2.09106e+03 -1.54029e+03
  3190    122.881  5.56311e+02 -2.08982e+03 -1.53351e+03
  3200    124.088  5.61776e+02 -2.08830e+03 -1.52652e+03
  3210    125.285  5.67195e+02 -2.08671e+03 -1.51952e+03
  3220    126.483  5.72617e+02 -2.08444e+03 -1.51183e+03
  3230    127.696  5.78107e+02 -2.08237e+03 -1.50426e+03
  3240    128.942  5.83748e+02 -2.07973e+03 -1.49598e+03
  3250    130.242  5.89634e+02 -2.07720e+03 -1.48757e+03
  3260    131.617  5.95861e+02 -2.07478e+03 -1.47892e+03
  3270    133.088  6.02517e+02 -2.07253e+03 -1.47001e+03
  3280    134.667  6.09669e+02 -2.07045e+03 -1.46078e+03
  3290    136.361  6.17336e+02 -2.06860e+03 -1.45127e+03
  3300    138.159  6.25475e+02 -2.06702e+03 -1.44155e+03
  3310    140.039  6.33989e+02 -2.06556e+03 -1.43157e+03
  3320    141.976  6.42756e+02 -2.06404e+03 -1.42129e+03
  3330    143.945  6.51673e+02 -2.06251e+03 -1.41083e+03
  3340    145.936  6.60685e+02 -2.06089e+03 -1.40021e+03
  3350    147.945  6.69782e+02 -2.05903e+03 -1.38925e+03
  3360    149.978  6.78984e+02 -2.05695e+03 -1.37797e+03
  3370    152.036  6.88301e+02 -2.05490e+03 -1.36660e+03
  3380    154.117  6.97722e+02 -2.05310e+03 -1.35538e+03
  3390    156.212  7.07207e+02 -2.05116e+03 -1.34395e+03
  3400    158.310  7.16703e+02 -2.04900e+03 -1.33230e+03
  3410    160.395  7.26146e+02 -2.04680e+03 -1.32065e+03
  3420    162.457  7.35481e+02 -2.04430e+03 -1.30882e+03
  3430    164.486  7.44664e+02 -2.04185e+03 -1.29719e+03
  3440    166.471  7.53653e+02 -2.03897e+03 -1.28532e+03
  3450    168.400  7.62386e+02 -2.03606e+03 -1.27367e+03
  3460    170.252  7.70768e+02 -2.03308e+03 -1.26231e+03
  3470    171.995  7.78662e+02 -2.02939e+03 -1.25073e+03
  3480    173.597  7.85914e+02 -2.02535e+03 -1.23944e+03
  3490    175.031  7.92406e+02 -2.02089e+03 -1.22848e+03
  3500    176.287  7.98092e+02 -2.01614e+03 -1.21805e+03
  3510    177.376  8.03021e+02 -2.01070e+03 -1.20768e+03
  3520    178.327  8.07328e+02 -2.00484e+03 -1.19751e+03
  3530    179.179  8.11186e+02 -1.99881e+03 -1.18763e+03
  3540    179.963  8.14735e+02 -1.99287e+03 -1.17814e+03
  3550    180.691  8.18031e+02 -1.98717e+03 -1.16913e+03
  3560    181.359  8.21051e+02 -1.98164e+03 -1.16059e+03
  3570    181.952  8.23739e+02 -1.97623e+03 -1.15249e+03
  3580    182.468  8.26072e+02 -1.97065e+03 -1.14458e+03
  3590    182.917  8.28108e+02 -1.96540e+03 -1.13729e+03
  3600    183.330  8.29976e+02 -1.96022e+03 -1.13024e+03
  3610    183.736  8.31814e+02 -1.95565e+03 -1.12384e+03
  3620    184.157  8.33722e+02 -1.95142e+03 -1.11770e+03
  3630    184.599  8.35719e+02 -1.94788e+03 -1.11216e+03
  3640    185.044  8.37737e+02 -1.94473e+03 -1.10699e+03
  3650    185.472  8.39675e+02 -1.94190e+03 -1.10222e+03
  3660    185.865  8.41455e+02 -1.93955e+03 -1.09809e+03
  3670    186.217  8.43046e+02 -1.93746e+03 -1.09442e+03
  3680    186.536  8.44492e+02 -1.93575e+03 -1.09126e+03
  3690    186.843  8.45881e+02 -1.93431e+03 -1.08843e+03
  3700    187.157  8.47303e+02 -1.93362e+03 -1.08632e+03
  3710    187.485  8.48785e+02 -1.93337e+03 -1.08459e+03
  3720    187.813  8.50272e+02 -1.93365e+03 -1.08338e+03
  3730    188.114  8.51634e+02 -1.93431e+03 -1.08268e+03
  3740    188.350  8.52703e+02 -1.93567e+03 -1.08296e+03
  3750    188.484  8.53309e+02 -1.93670e+03 -1.08339e+03
  3760    188.484  8.53309e+02 -1.93783e+03 -1.08452e+03
  3770    188.327  8.52598e+02 -1.93885e+03 -1.08626e+03
  3780    188.002  8.51127e+02 -1.93974e+03 -1.08861e+03
  3790    187.511  8.48905e+02 -1.94016e+03 -1.09126e+03
  3800    186.872  8.46009e+02 -1.94033e+03 -1.09433e+03
  3810    186.115  8.42586e+02 -1.94038e+03 -1.09780e+03
  3820    185.291  8.38853e+02 -1.94097e+03 -1.10212e+03
  3830    184.459  8.35088e+02 -1.94174e+03 -1.10665e+03
  3840    183.682  8.31570e+02 -1.94318e+03 -1.11161e+03
  3850    182.999  8.28476e+02 -1.94540e+03 -1.11693e+03
  3860    182.400  8.25765e+02 -1.94864e+03 -1.12287e+03
  3870    181.818  8.23133e+02 -1.95242e+03 -1.12928e+03
  3880    181.145  8.20085e+02 -1.95619e+03 -1.13611e+03
  3890    180.262  8.16085e+02 -1.95955e+03 -1.14346e+03
  3900    179.078  8.10725e+02 -1.96183e+03 -1.15111e+03
  3910    177.567  8.03888e+02 -1.96279e+03 -1.15890e+03
  3920    175.787  7.95827e+02 -1.96277e+03 -1.16695e+03
  3930    173.855  7.87083e+02 -1.96243e+03 -1.17535e+03
  3940    171.902  7.78237e+02 -1.96198e+03 -1.18374e+03
  3950    170.006  7.69655e+02 -1.96217e+03 -1.19252e+03
  3960    168.184  7.61406e+02 -1.96282e+03 -1.20141e+03
  3970    166.414  7.53396e+02 -1.96418e+03 -1.21078e+03
  3980    164.674  7.45514e+02 -1.96572e+03 -1.22020e+03
  3990    162.945  7.37689e+02 -1.96741e+03 -1.22972e+03
  4000    161.219  7.29873e+02 -1.96903e+03 -1.23916e+03
  4010    159.493  7.22060e+02 -1.97057e+03 -1.24851e+03
  4020    157.781  7.14312e+02 -1.97233e+03 -1.25801e+03
  4030    156.116  7.06772e+02 -1.97420e+03 -1.26743e+03
  4040    154.539  6.99631e+02 -1.97662e+03 -1.27699e+03
  4050    153.090  6.93072e+02 -1.97953e+03 -1.28646e+03
  4060    151.799  6.87228e+02 -1.98298e+03 -1.29576e+03
  4070    150.679  6.82157e+02 -1.98719e+03 -1.30504e+03
  4080    149.728  6.77854e+02 -1.99194e+03 -1.31408e+03
  4090    148.932  6.74249e+02 -1.99760e+03 -1.32335e+03
  4100    148.265  6.71231e+02 -2.00339e+03 -1.33216e+03
  4110    147.694  6.68642e+02 -2.00987e+03 -1.34123e+03
  4120    147.175  6.66295e+02 -2.01641e+03 -1.35012e+03
  4130    146.665  6.63983e+02 -2.02283e+03 -1.35885e+03
  4140    146.114  6.61490e+02 -2.02907e+03 -1.36758e+03
  4150    145.480  6.58621e+02 -2.03502e+03 -1.37640e+03
  4160    144.729  6.55222e+02 -2.04037e+03 -1.38514e+03
  4170    143.839  6.51192e+02 -2.04481e+03 -1.39362e+03
  4180    142.801  6.46491e+02 -2.04828e+03 -1.40179e+03
  4190    141.615  6.41123e+02 -2.05128e+03 -1.41016e+03
  4200    140.292  6.35135e+02 -2.05342e+03 -1.41828e+03
  4210    138.847  6.28589e+02 -2.05473e+03 -1.42614e+03
  4220    137.292  6.21552e+02 -2.05545e+03 -1.43390e+03
  4230    135.643  6.14088e+02 -2.05538e+03 -1.44129e+03
  4240    133.917  6.06274e+02 -2.05472e+03 -1.44845e+03
  4250    132.138  5.98220e+02 -2.05365e+03 -1.45543e+03
  4260    130.340  5.90077e+02 -2.05219e+03 -1.46211e+03
  4270    128.564  5.82038e+02 -2.05031e+03 -1.46827e+03
  4280    126.854  5.74298e+02 -2.04869e+03 -1.47440e+03
  4290    125.237  5.66977e+02 -2.04722e+03 -1.48024e+03
  4300    123.720  5.60108e+02 -2.04575e+03 -1.48564e+03
  4310    122.295  5.53659e+02 -2.04448e+03 -1.49082e+03
  4320    120.958  5.47604e+02 -2.04362e+03 -1.49602e+03
  4330    119.719  5.41996e+02 -2.04253e+03 -1.50053e+03
  4340    118.608  5.36966e+02 -2.04202e+03 -1.50505e+03
  4350    117.662  5.32681e+02 -2.04175e+03 -1.50907e+03
  4360    116.911  5.29281e+02 -2.04194e+03 -1.51266e+03
  4370    116.368  5.26823e+02 -2.04311e+03 -1.51629e+03
  4380    116.023  5.25264e+02 -2.04450e+03 -1.51923e+03
  4390    115.852  5.24487e+02 -2.04652e+03 -1.52203e+03
  4400    115.819  5.24337e+02 -2.04878e+03 -1.52445e+03
  4410    115.890  5.24662e+02 -2.05116e+03 -1.52650e+03
  4420    116.037  5.25327e+02 -2.05373e+03 -1.52840e+03
  4430    116.234  5.26217e+02 -2.05610e+03 -1.52988e+03
  4440    116.459  5.27237e+02 -2.05863e+03 -1.53139e+03
  4450    116.696  5.28310e+02 -2.06064e+03 -1.53233e+03
  4460    116.934  5.29386e+02 -2.06222e+03 -1.53283e+03
  4470    117.171  5.30459e+02 -2.06374e+03 -1.53328e+03
  4480    117.413  5.31557e+02 -2.06504e+03 -1.53348e+03
  4490    117.678  5.32754e+02 -2.06590e+03 -1.53315e+03
  4500    117.984  5.34141e+02 -2.06697e+03 -1.53283e+03
  4510    118.352  5.35808e+02 -2.06768e+03 -1.53188e+03
  4520    118.797  5.37822e+02 -2.06870e+03 -1.53088e+03
  4530    119.328  5.40226e+02 -2.06958e+03 -1.52936e+03
  4540    119.948  5.43032e+02 -2.07064e+03 -1.52761e+03
  4550    120.656  5.46238e+02 -2.07198e+03 -1.52574e+03
  4560    121.451  5.49835e+02 -2.07333e+03 -1.52349e+03
  4570    122.329  5.53811e+02 -2.07469e+03 -1.52088e+03
  4580    123.287  5.58149e+02 -2.07640e+03 -1.51825e+03
  4590    124.319  5.62819e+02 -2.07787e+03 -1.51505e+03
  4600    125.414  5.67776e+02 -2.07960e+03 -1.51182e+03
  4610    126.558  5.72957e+02 -2.08111e+03 -1.50815e+03
  4620    127.735  5.78284e+02 -2.08268e+03 -1.50440e+03
  4630    128.924  5.83666e+02 -2.08404e+03 -1.50037e+03
  4640    130.103  5.89006e+02 -2.08472e+03 -1.49572e+03
  4650    131.253  5.94213e+02 -2.08524e+03 -1.49103e+03
  4660    132.358  5.99215e+02 -2.08543e+03 -1.48621e+03
  4670    133.408  6.03968e+02 -2.08490e+03 -1.48094e+03
  4680    134.400  6.08459e+02 -2.08417e+03 -1.47571e+03
  4690    135.337  6.12699e+02 -2.08305e+03 -1.47036e+03
  4700    136.227  6.16730e+02 -2.08164e+03 -1.46491e+03
  4710    137.083  6.20605e+02 -2.07971e+03 -1.45910e+03
  4720    137.919  6.24392e+02 -2.07747e+03 -1.45308e+03
  4730    138.749  6.28150e+02 -2.07513e+03 -1.44698e+03
  4740    139.584  6.31929e+02 -2.07267e+03 -1.44074e+03
  4750    140.430  6.35758e+02 -2.07011e+03 -1.43435e+03
  4760    141.286  6.39634e+02 -2.06729e+03 -1.42766e+03
  4770    142.148  6.43537e+02 -2.06445e+03 -1.42091e+03
  4780    143.008  6.47430e+02 -2.06139e+03 -1.41396e+03
  4790    143.860  6.51287e+02 -2.05822e+03 -1.40693e+03
  4800    144.703  6.55103e+02 -2.05501e+03 -1.39991e+03
  4810    145.544  6.58909e+02 -2.05154e+03 -1.39263e+03
  4820    146.392  6.62750e+02 -2.04814e+03 -1.38539e+03
  4830    147.255  6.66656e+02 -2.04473e+03 -1.37808e+03
  4840    148.130  6.70619e+02 -2.04118e+03 -1.37056e+03
  4850    149.006  6.74585e+02 -2.03755e+03 -1.36296e+03
  4860    149.869  6.78492e+02 -2.03396e+03 -1.35547e+03
  4870    150.712  6.82309e+02 -2.03027e+03 -1.34796e+03
  4880    151.548  6.86091e+02 -2.02627e+03 -1.34018e+03
  4890    152.406  6.89976e+02 -2.02245e+03 -1.33248e+03
  4900    153.325  6.94136e+02 -2.01885e+03 -1.32471e+03
  4910    154.331  6.98692e+02 -2.01585e+03 -1.31716e+03
  4920    155.426  7.03647e+02 -2.01307e+03 -1.30942e+03
  4930    156.579  7.08868e+02 -2.01066e+03 -1.30179e+03
  4940    157.748  7.14159e+02 -2.00821e+03 -1.29406e+03
  4950    158.897  7.19362e+02 -2.00588e+03 -1.28652e+03
  4960    160.017  7.24432e+02 -2.00340e+03 -1.27897e+03
  4970    161.125  7.29449e+02 -2.00094e+03 -1.27149e+03
  4980    162.257  7.34573e+02 -1.99870e+03 -1.26413e+03
  4990    163.449  7.39971e+02 -1.99706e+03 -1.25709e+03
  5000    164.724  7.45745e+02 -1.99543e+03 -1.24969e+03
  5010    166.081  7.51887e+02 -1.99433e+03 -1.24244e+03
  5020    167.493  7.58277e+02 -1.99363e+03 -1.23535e+03
  5030    168.912  7.64702e+02 -1.99322e+03 -1.22852e+03
  5040    170.282  7.70903e+02 -1.99254e+03 -1.22163e+03
  5050    171.549  7.76640e+02 -1.99208e+03 -1.21544e+03
  5060    172.672  7.81726e+02 -1.99076e+03 -1.20903e+03
  5070    173.627  7.86047e+02 -1.98909e+03 -1.20305e+03
  5080    174.401  7.89551e+02 -1.98699e+03 -1.19744e+03
  5090    174.994  7.92238e+02 -1.98438e+03 -1.19215e+03
  5100    175.421  7.94168e+02 -1.98130e+03 -1.18713e+03
  5110    175.708  7.95470e+02 -1.97788e+03 -1.18241e+03
  5120    175.902  7.96347e+02 -1.97440e+03 -1.17805e+03
  5130    176.052  7.97028e+02 -1.97114e+03 -1.17411e+03
  5140    176.199  7.97692e+02 -1.96788e+03 -1.17019e+03
  5150    176.359  7.98415e+02 -1.96541e+03 -1.16699e+03
  5160    176.524  7.99162e+02 -1.96308e+03 -1.16392e+03
  5170    176.675  7.99847e+02 -1.96092e+03 -1.16107e+03
  5180    176.804  8.00432e+02 -1.95909e+03 -1.15866e+03
  5190    176.927  8.00986e+02 -1.95759e+03 -1.15660e+03
  5200    177.079  8.01676e+02 -1.95672e+03 -1.15504e+03
  5210    177.290  8.02632e+02 -1.95651e+03 -1.15388e+03
  5220    177.552  8.03817e+02 -1.95700e+03 -1.15318e+03
  5230    177.811  8.04988e+02 -1.95761e+03 -1.15262e+03
  5240    177.995  8.05824e+02 -1.95828e+03 -1.15246e+03
  5250    178.055  8.06095e+02 -1.95897e+03 -1.15287e+03
  5260    177.983  8.05771e+02 -1.95907e+03 -1.15329e+03
  5270    177.813  8.05000e+02 -1.95951e+03 -1.15451e+03
  5280    177.594  8.04010e+02 -1.95989e+03 -1.15588e+03
  5290    177.363  8.02960e+02 -1.96060e+03 -1.15764e+03
  5300    177.122  8.01871e+02 -1.96156e+03 -1.15969e+03
  5310    176.848  8.00629e+02 -1.96267e+03 -1.16204e+03
  5320    176.499  7.99049e+02 -1.96382e+03 -1.16477e+03
  5330    176.038  7.96964e+02 -1.96486e+03 -1.16790e+03
  5340    175.448  7.94293e+02 -1.96582e+03 -1.17152e+03
  5350    174.733  7.91054e+02 -1.96618e+03 -1.17513e+03
  5360    173.914  7.87349e+02 -1.96665e+03 -1.17930e+03
  5370    173.018  7.83292e+02 -1.96703e+03 -1.18374e+03
  5380    172.060  7.78955e+02 -1.96737e+03 -1.18842e+03
  5390    171.043  7.74350e+02 -1.96776e+03 -1.19341e+03
  5400    169.963  7.69459e+02 -1.96792e+03 -1.19846e+03
  5410    168.820  7.64287e+02 -1.96808e+03 -1.20380e+03
  5420    167.634  7.58919e+02 -1.96817e+03 -1.20925e+03
  5430    166.443  7.53526e+02 -1.96875e+03 -1.21522e+03
  5440    165.294  7.48322e+02 -1.96942e+03 -1.22110e+03
  5450    164.229  7.43500e+02 -1.97065e+03 -1.22714e+03
  5460    163.274  7.39179e+02 -1.97259e+03 -1.23341e+03
  5470    162.432  7.35368e+02 -1.97479e+03 -1.23942e+03
  5480    161.679  7.31956e+02 -1.97772e+03 -1.24577e+03
  5490    160.968  7.28739e+02 -1.98113e+03 -1.25239e+03
  5500    160.242  7.25451e+02 -1.98440e+03 -1.25895e+03
  5510    159.435  7.21798e+02 -1.98749e+03 -1.26569e+03
  5520    158.488  7.17511e+02 -1.99003e+03 -1.27252e+03
  5530    157.350  7.12361e+02 -1.99204e+03 -1.27968e+03
  5540    155.990  7.06200e+02 -1.99272e+03 -1.28651e+03
  5550    154.392  6.98968e+02 -1.99228e+03 -1.29331e+03
  5560    152.566  6.90701e+02 -1.99060e+03 -1.29990e+03
  5570    150.542  6.81536e+02 -1.98809e+03 -1.30655e+03
  5580    148.366  6.71684e+02 -1.98485e+03 -1.31317e+03
  5590    146.097  6.61414e+02 -1.98116e+03 -1.31975e+03
  5600    143.804  6.51034e+02 -1.97700e+03 -1.32596e+03
  5610    141.562  6.40882e+02 -1.97313e+03 -1.33225e+03
  5620    139.443  6.31288e+02 -1.96965e+03 -1.33836e+03
  5630    137.515  6.22561e+02 -1.96702e+03 -1.34446e+03
  5640    135.833  6.14948e+02 -1.96528e+03 -1.35033e+03
  5650    134.433  6.08607e+02 -1.96439e+03 -1.35579e+03
  5660    133.326  6.03598e+02 -1.96463e+03 -1.36104e+03
  5670    132.506  5.99885e+02 -1.96593e+03 -1.36604e+03
  5680    131.946  5.97351e+02 -1.96847e+03 -1.37112e+03
  5690    131.608  5.95819e+02 -1.97167e+03 -1.37585e+03
  5700    131.443  5.95074e+02 -1.97555e+03 -1.38048e+03
  5710    131.404  5.94897e+02 -1.97964e+03 -1.38474e+03
  5720    131.448  5.95095e+02 -1.98398e+03 -1.38888e+03
  5730    131.539  5.95505e+02 -1.98826e+03 -1.39275e+03
  5740    131.650  5.96009e+02 -1.99268e+03 -1.39667e+03
  5750    131.764  5.96524e+02 -1.99664e+03 -1.40012e+03
  5760    131.868  5.96996e+02 -2.00075e+03 -1.40375e+03
  5770    131.952  5.97376e+02 -2.00430e+03 -1.40693e+03
  5780    132.005  5.97616e+02 -2.00784e+03 -1.41022e+03
  5790    132.015  5.97660e+02 -2.01072e+03 -1.41306e+03
  5800    131.969  5.97455e+02 -2.01304e+03 -1.41559e+03
  5810    131.861  5.96964e+02 -2.01500e+03 -1.41804e+03
  5820    131.690  5.96192e+02 -2.01660e+03 -1.42040e+03
  5830    131.471  5.95199e+02 -2.01778e+03 -1.42258e+03
  5840    131.227  5.94094e+02 -2.01853e+03 -1.42443e+03
  5850    130.992  5.93029e+02 -2.01924e+03 -1.42621e+03
  5860    130.800  5.92160e+02 -2.02004e+03 -1.42788e+03
  5870    130.682  5.91625e+02 -2.02082e+03 -1.42920e+03
  5880    130.658  5.91517e+02 -2.02202e+03 -1.43050e+03
  5890    130.735  5.91867e+02 -2.02344e+03 -1.43157e+03
  5900    130.907  5.92644e+02 -2.02524e+03 -1.43259e+03
  5910    131.156  5.93772e+02 -2.02692e+03 -1.43315e+03
  5920    131.464  5.95166e+02 -2.02888e+03 -1.43371e+03
  5930    131.812  5.96744e+02 -2.03050e+03 -1.43375e+03
  5940    132.188  5.98446e+02 -2.03224e+03 -1.43379e+03
  5950    132.584  6.00237e+02 -2.03375e+03 -1.43351e+03
  5960    132.999  6.02116e+02 -2.03527e+03 -1.43315e+03
  5970    133.441  6.04116e+02 -2.03690e+03 -1.43278e+03
  5980    133.922  6.06296e+02 -2.03840e+03 -1.43211e+03
  5990    134.464  6.08747e+02 -2.04013e+03 -1.43138e+03
  6000    135.085  6.11561e+02 -2.04191e+03 -1.43035e+03
  6010    135.808  6.14836e+02 -2.04400e+03 -1.42916e+03
  6020    136.650  6.18644e+02 -2.04662e+03 -1.42798e+03
  6030    137.614  6.23008e+02 -2.04942e+03 -1.42641e+03
  6040    138.692  6.27888e+02 -2.05261e+03 -1.42472e+03
  6050    139.859  6.33173e+02 -2.05613e+03 -1.42295e+03
  6060    141.076  6.38683e+02 -2.05975e+03 -1.42106e+03
  6070    142.294  6.44199e+02 -2.06328e+03 -1.41908e+03
  6080    143.465  6.49499e+02 -2.06664e+03 -1.41714e+03
  6090    144.546  6.54393e+02 -2.06940e+03 -1.41501e+03
  6100    145.509  6.58752e+02 -2.07166e+03 -1.41290e+03
  6110    146.341  6.62519e+02 -2.07299e+03 -1.41047e+03
  6120    147.045  6.65707e+02 -2.07375e+03 -1.40804e+03
  6130    147.640  6.68399e+02 -2.07429e+03 -1.40589e+03
  6140    148.149  6.70705e+02 -2.07419e+03 -1.40348e+03
  6150    148.596  6.72729e+02 -2.07388e+03 -1.40115e+03
  6160    148.998  6.74549e+02 -2.07315e+03 -1.39860e+03
  6170    149.363  6.76200e+02 -2.07242e+03 -1.39622e+03
  6180    149.686  6.77660e+02 -2.07125e+03 -1.39359e+03
  6190    149.953  6.78870e+02 -2.06981e+03 -1.39094e+03
  6200    150.149  6.79760e+02 -2.06812e+03 -1.38836e+03
  6210    150.266  6.80289e+02 -2.06584e+03 -1.38555e+03
  6220    150.306  6.80471e+02 -2.06334e+03 -1.38287e+03
  6230    150.285  6.80375e+02 -2.06079e+03 -1.38042e+03
  6240    150.234  6.80144e+02 -2.05805e+03 -1.37791e+03
  6250    150.194  6.79961e+02 -2.05536e+03 -1.37540e+03
  6260    150.204  6.80009e+02 -2.05256e+03 -1.37255e+03
  6270    150.293  6.80409e+02 -2.05039e+03 -1.36998e+03
  6280    150.464  6.81182e+02 -2.04885e+03 -1.36767e+03
  6290    150.700  6.82253e+02 -2.04750e+03 -1.36524e+03
  6300    150.970  6.83473e+02 -2.04631e+03 -1.36284e+03
  6310    151.233  6.84664e+02 -2.04512e+03 -1.36046e+03
  6320    151.448  6.85637e+02 -2.04382e+03 -1.35819e+03
  6330    151.576  6.86217e+02 -2.04180e+03 -1.35558e+03
  6340    151.583  6.86249e+02 -2.03945e+03 -1.35320e+03
  6350    151.445  6.85627e+02 -2.03620e+03 -1.35057e+03
  6360    151.156  6.84319e+02 -2.03228e+03 -1.34796e+03
  6370    150.727  6.82377e+02 -2.02796e+03 -1.34559e+03
  6380    150.182  6.79909e+02 -2.02324e+03 -1.34333e+03
  6390    149.550  6.77047e+02 -2.01803e+03 -1.34098e+03
  6400    148.860  6.73921e+02 -2.01244e+03 -1.33852e+03
  6410    148.141  6.70669e+02 -2.00670e+03 -1.33603e+03
  6420    147.444  6.67511e+02 -2.00112e+03 -1.33361e+03
  6430    146.846  6.64803e+02 -1.99602e+03 -1.33121e+03
  6440    146.455  6.63036e+02 -1.99156e+03 -1.32853e+03
  6450    146.389  6.62735e+02 -1.98854e+03 -1.32580e+03
  6460    146.724  6.64252e+02 -1.98727e+03 -1.32302e+03
  6470    147.463  6.67600e+02 -1.98801e+03 -1.32041e+03
  6480    148.526  6.72412e+02 -1.99010e+03 -1.31769e+03
  6490    149.778  6.78080e+02 -1.99301e+03 -1.31493e+03
  6500    151.072  6.83939e+02 -1.99615e+03 -1.31221e+03
  6510    152.282  6.89415e+02 -1.99899e+03 -1.30958e+03
  6520    153.319  6.94110e+02 -2.00110e+03 -1.30699e+03
  6530    154.138  6.97819e+02 -2.00226e+03 -1.30444e+03
  6540    154.731  7.00503e+02 -2.00220e+03 -1.30170e+03
  6550    155.115  7.02241e+02 -2.00137e+03 -1.29913e+03
  6560    155.321  7.03173e+02 -1.99988e+03 -1.29671e+03
  6570    155.383  7.03455e+02 -1.99777e+03 -1.29431e+03
  6580    155.339  7.03253e+02 -1.99511e+03 -1.29185e+03
  6590    155.230  7.02761e+02 -1.99218e+03 -1.28942e+03
  6600    155.113  7.02232e+02 -1.98942e+03 -1.28718e+03
  6610    155.060  7.01991e+02 -1.98686e+03 -1.28487e+03
  6620    155.143  7.02367e+02 -1.98518e+03 -1.28281e+03
  6630    155.412  7.03586e+02 -1.98436e+03 -1.28077e+03
  6640    155.875  7.05679e+02 -1.98433e+03 -1.27865e+03
  6650    156.490  7.08467e+02 -1.98519e+03 -1.27672e+03
  6660    157.187  7.11622e+02 -1.98639e+03 -1.27477e+03
  6670    157.883  7.14771e+02 -1.98750e+03 -1.27272e+03
  6680    158.503  7.17578e+02 -1.98863e+03 -1.27105e+03
  6690    158.993  7.19799e+02 -1.98916e+03 -1.26936e+03
  6700    159.328  7.21312e+02 -1.98885e+03 -1.26754e+03
  6710    159.502  7.22099e+02 -1.98829e+03 -1.26619e+03
  6720    159.532  7.22236e+02 -1.98682e+03 -1.26458e+03
  6730    159.447  7.21854e+02 -1.98519e+03 -1.26333e+03
  6740    159.285  7.21119e+02 -1.98330e+03 -1.26218e+03
  6750    159.082  7.20201e+02 -1.98152e+03 -1.26131e+03
  6760    158.878  7.19275e+02 -1.97969e+03 -1.26042e+03
  6770    158.710  7.18514e+02 -1.97828e+03 -1.25977e+03
  6780    158.615  7.18087e+02 -1.97725e+03 -1.25916e+03
  6790    158.631  7.18157e+02 -1.97661e+03 -1.25846e+03
  6800    158.787  7.18866e+02 -1.97688e+03 -1.25801e+03
  6810    159.108  7.20317e+02 -1.97785e+03 -1.25753e+03
  6820    159.599  7.22542e+02 -1.97972e+03 -1.25718e+03
  6830    160.247  7.25475e+02 -1.98249e+03 -1.25702e+03
  6840    161.008  7.28919e+02 -1.98582e+03 -1.25690e+03
  6850    161.811  7.32554e+02 -1.98951e+03 -1.25695e+03
  6860    162.573  7.36003e+02 -1.99299e+03 -1.25699e+03
  6870    163.207  7.38876e+02 -1.99633e+03 -1.25746e+03
  6880    163.645  7.40856e+02 -1.99869e+03 -1.25783e+03
  6890    163.839  7.41734e+02 -2.00022e+03 -1.25849e+03
  6900    163.772  7.41431e+02 -2.00059e+03 -1.25916e+03
  6910    163.457  7.40005e+02 -2.00010e+03 -1.26009e+03
  6920    162.937  7.37653e+02 -1.99890e+03 -1.26125e+03
  6930    162.285  7.34702e+02 -1.99730e+03 -1.26260e+03
  6940    161.587  7.31539e+02 -1.99551e+03 -1.26397e+03
  6950    160.923  7.28534e+02 -1.99407e+03 -1.26554e+03
  6960    160.347  7.25926e+02 -1.99331e+03 -1.26739e+03
  6970    159.874  7.23787e+02 -1.99308e+03 -1.26930e+03
  6980    159.492  7.22057e+02 -1.99331e+03 -1.27126e+03
  6990    159.172  7.20607e+02 -1.99383e+03 -1.27323e+03
  7000    158.883  7.19300e+02 -1.99470e+03 -1.27540e+03
  7010    158.601  7.18022e+02 -1.99574e+03 -1.27771e+03
  7020    158.300  7.16658e+02 -1.99674e+03 -1.28009e+03
  7030    157.951  7.15078e+02 -1.99741e+03 -1.28233e+03
  7040    157.520  7.13130e+02 -1.99805e+03 -1.28492e+03
  7050    156.978  7.10674e+02 -1.99830e+03 -1.28763e+03
  7060    156.304  7.07622e+02 -1.99787e+03 -1.29025e+03
  7070    155.503  7.03998e+02 -1.99705e+03 -1.29305e+03
  7080    154.608  6.99946e+02 -1.99581e+03 -1.29586e+03
  7090    153.672  6.95709e+02 -1.99401e+03 -1.29830e+03
  7100    152.755  6.91556e+02 -1.99283e+03 -1.30127e+03
  7110    151.904  6.87703e+02 -1.99173e+03 -1.30403e+03
  7120    151.149  6.84287e+02 -1.99124e+03 -1.30696e+03
  7130    150.506  6.81373e+02 -1.99145e+03 -1.31008e+03
  7140    149.980  6.78992e+02 -1.99195e+03 -1.31296e+03
  7150    149.577  6.77169e+02 -1.99311e+03 -1.31595e+03
  7160    149.303  6.75926e+02 -1.99455e+03 -1.31862e+03
  7170    149.158  6.75271e+02 -1.99691e+03 -1.32164e+03
  7180    149.136  6.75170e+02 -1.99958e+03 -1.32441e+03
  7190    149.215  6.75528e+02 -2.00295e+03 -1.32743e+03
  7200    149.359  6.76182e+02 -2.00658e+03 -1.33040e+03
  7210    149.524  6.76928e+02 -2.01023e+03 -1.33330e+03
  7220    149.660  6.77544e+02 -2.01379e+03 -1.33624e+03
  7230    149.723  6.77830e+02 -2.01685e+03 -1.33902e+03
  7240    149.678  6.77626e+02 -2.01934e+03 -1.34171e+03
  7250    149.504  6.76838e+02 -2.02133e+03 -1.34449e+03
  7260    149.193  6.75431e+02 -2.02264e+03 -1.34721e+03
  7270    148.750  6.73423e+02 -2.02336e+03 -1.34994e+03
  7280    148.186  6.70872e+02 -2.02360e+03 -1.35273e+03
  7290    147.522  6.67867e+02 -2.02313e+03 -1.35527e+03
  7300    146.783  6.64520e+02 -2.02246e+03 -1.35794e+03
  7310    145.995  6.60951e+02 -2.02140e+03 -1.36044e+03
  7320    145.184  6.57279e+02 -2.02023e+03 -1.36295e+03
  7330    144.377  6.53625e+02 -2.01901e+03 -1.36538e+03
  7340    143.595  6.50085e+02 -2.01809e+03 -1.36800e+03
  7350    142.853  6.46727e+02 -2.01727e+03 -1.37054e+03
  7360    142.161  6.43597e+02 -2.01655e+03 -1.37295e+03
  7370    141.523  6.40704e+02 -2.01596e+03 -1.37526e+03
  7380    140.934  6.38039e+02 -2.01523e+03 -1.37719e+03
  7390    140.392  6.35588e+02 -2.01464e+03 -1.37905e+03
  7400    139.900  6.33358e+02 -2.01424e+03 -1.38089e+03
  7410    139.466  6.31395e+02 -2.01396e+03 -1.38257e+03
  7420    139.113  6.29795e+02 -2.01392e+03 -1.38413e+03
  7430    138.868  6.28688e+02 -2.01448e+03 -1.38579e+03
  7440    138.763  6.28210e+02 -2.01537e+03 -1.38716e+03
  7450    138.817  6.28457e+02 -2.01678e+03 -1.38832e+03
  7460    139.037  6.29452e+02 -2.01882e+03 -1.38937e+03
  7470    139.407  6.31128e+02 -2.02159e+03 -1.39047e+03
  7480    139.896  6.33342e+02 -2.02455e+03 -1.39121e+03
  7490    140.459  6.35889e+02 -2.02784e+03 -1.39195e+03
  7500    141.043  6.38535e+02 -2.03106e+03 -1.39253e+03
  7510    141.597  6.41041e+02 -2.03415e+03 -1.39311e+03
  7520    142.071  6.43187e+02 -2.03696e+03 -1.39377e+03
  7530    142.425  6.44788e+02 -2.03885e+03 -1.39406e+03
  7540    142.627  6.45704e+02 -2.04027e+03 -1.39457e+03
  7550    142.661  6.45857e+02 -2.04085e+03 -1.39500e+03
  7560    142.525  6.45241e+02 -2.04056e+03 -1.39532e+03
  7570    142.230  6.43909e+02 -2.03926e+03 -1.39535e+03
  7580    141.802  6.41968e+02 -2.03740e+03 -1.39543e+03
  7590    141.270  6.39561e+02 -2.03470e+03 -1.39514e+03
  7600    140.670  6.36843e+02 -2.03178e+03 -1.39493e+03
  7610    140.033  6.33962e+02 -2.02849e+03 -1.39453e+03
  7620    139.392  6.31059e+02 -2.02504e+03 -1.39398e+03
  7630    138.774  6.28261e+02 -2.02150e+03 -1.39324e+03
  7640    138.207  6.25695e+02 -2.01846e+03 -1.39277e+03
  7650    137.719  6.23483e+02 -2.01547e+03 -1.39199e+03
  7660    137.336  6.21751e+02 -2.01308e+03 -1.39133e+03
  7670    137.086  6.20619e+02 -2.01099e+03 -1.39037e+03
  7680    136.991  6.20188e+02 -2.00961e+03 -1.38942e+03
  7690    137.065  6.20526e+02 -2.00865e+03 -1.38812e+03
  7700    137.314  6.21653e+02 -2.00831e+03 -1.38666e+03
  7710    137.731  6.23540e+02 -2.00854e+03 -1.38500e+03
  7720    138.296  6.26098e+02 -2.00943e+03 -1.38333e+03
  7730    138.979  6.29188e+02 -2.01050e+03 -1.38131e+03
  7740    139.740  6.32632e+02 -2.01177e+03 -1.37914e+03
  7750    140.533  6.36227e+02 -2.01332e+03 -1.37709e+03
  7760    141.312  6.39749e+02 -2.01480e+03 -1.37505e+03
  7770    142.027  6.42988e+02 -2.01595e+03 -1.37296e+03
  7780    142.638  6.45756e+02 -2.01645e+03 -1.37069e+03
  7790    143.117  6.47922e+02 -2.01626e+03 -1.36833e+03
  7800    143.448  6.49422e+02 -2.01528e+03 -1.36585e+03
  7810    143.635  6.50270e+02 -2.01365e+03 -1.36338e+03
  7820    143.700  6.50562e+02 -2.01141e+03 -1.36085e+03
  7830    143.679  6.50466e+02 -2.00865e+03 -1.35819e+03
  7840    143.619  6.50195e+02 -2.00571e+03 -1.35552e+03
  7850    143.574  6.49991e+02 -2.00257e+03 -1.35258e+03
  7860    143.596  6.50090e+02 -1.99940e+03 -1.34931e+03
  7870    143.728  6.50689e+02 -1.99711e+03 -1.34642e+03
  7880    144.001  6.51924e+02 -1.99527e+03 -1.34335e+03
  7890    144.422  6.53830e+02 -1.99383e+03 -1.34000e+03
  7900    144.976  6.56339e+02 -1.99303e+03 -1.33669e+03
  7910    145.630  6.59301e+02 -1.99274e+03 -1.33344e+03
  7920    146.341  6.62518e+02 -1.99248e+03 -1.32996e+03
  7930    147.064  6.65790e+02 -1.99235e+03 -1.32656e+03
  7940    147.764  6.68963e+02 -1.99188e+03 -1.32292e+03
  7950    148.431  6.71979e+02 -1.99162e+03 -1.31964e+03
  7960    149.073  6.74887e+02 -1.99097e+03 -1.31608e+03
  7970    149.723  6.77830e+02 -1.99042e+03 -1.31258e+03
  7980    150.426  6.81012e+02 -1.98980e+03 -1.30879e+03
  7990    151.226  6.84633e+02 -1.98987e+03 -1.30524e+03
  8000    152.157  6.88850e+02 -1.99057e+03 -1.30172e+03
  8010    153.231  6.93710e+02 -1.99194e+03 -1.29823e+03
  8020    154.431  6.99143e+02 -1.99370e+03 -1.29456e+03
  8030    155.718  7.04969e+02 -1.99596e+03 -1.29099e+03
  8040    157.036  7.10940e+02 -1.99829e+03 -1.28735e+03
  8050    158.325  7.16772e+02 -2.00062e+03 -1.28385e+03
  8060    159.523  7.22198e+02 -2.00260e+03 -1.28040e+03
  8070    160.581  7.26987e+02 -2.00388e+03 -1.27690e+03
  8080    161.459  7.30963e+02 -2.00446e+03 -1.27350e+03
  8090    162.130  7.33997e+02 -2.00420e+03 -1.27020e+03
  8100    162.575  7.36015e+02 -2.00314e+03 -1.26712e+03
  8110    162.791  7.36991e+02 -2.00112e+03 -1.26413e+03
  8120    162.783  7.36955e+02 -1.99827e+03 -1.26131e+03
  8130    162.569  7.35986e+02 -1.99459e+03 -1.25861e+03
  8140    162.175  7.34204e+02 -1.99023e+03 -1.25602e+03
  8150    161.635  7.31757e+02 -1.98561e+03 -1.25385e+03
  8160    160.980  7.28795e+02 -1.98036e+03 -1.25157e+03
  8170    160.243  7.25455e+02 -1.97510e+03 -1.24964e+03
  8180    159.450  7.21865e+02 -1.96968e+03 -1.24781e+03
  8190    158.628  7.18143e+02 -1.96404e+03 -1.24590e+03
  8200    157.804  7.14416e+02 -1.95864e+03 -1.24422e+03
  8210    157.015  7.10840e+02 -1.95370e+03 -1.24286e+03
  8220    156.301  7.07610e+02 -1.94902e+03 -1.24141e+03
  8230    155.720  7.04979e+02 -1.94507e+03 -1.24009e+03
  8240    155.338  7.03250e+02 -1.94216e+03 -1.23891e+03
  8250    155.226  7.02744e+02 -1.94021e+03 -1.23747e+03
  8260    155.443  7.03723e+02 -1.94019e+03 -1.23647e+03
  8270    156.005  7.06268e+02 -1.94161e+03 -1.23534e+03
  8280    156.876  7.10212e+02 -1.94476e+03 -1.23455e+03
  8290    157.963  7.15132e+02 -1.94876e+03 -1.23362e+03
  8300    159.131  7.20423e+02 -1.95313e+03 -1.23271e+03
  8310    160.240  7.25444e+02 -1.95758e+03 -1.23214e+03
  8320    161.172  7.29660e+02 -1.96134e+03 -1.23168e+03
  8330    161.850  7.32732e+02 -1.96375e+03 -1.23101e+03
  8340    162.250  7.34541e+02 -1.96527e+03 -1.23073e+03
  8350    162.387  7.35163e+02 -1.96555e+03 -1.23039e+03
  8360    162.307  7.34799e+02 -1.96516e+03 -1.23036e+03
  8370    162.068  7.33718e+02 -1.96416e+03 -1.23045e+03
  8380    161.727  7.32175e+02 -1.96271e+03 -1.23053e+03
  8390    161.334  7.30396e+02 -1.96138e+03 -1.23098e+03
  8400    160.933  7.28582e+02 -1.96003e+03 -1.23144e+03
  8410    160.570  7.26938e+02 -1.95897e+03 -1.23204e+03
  8420    160.296  7.25694e+02 -1.95849e+03 -1.23279e+03
  8430    160.157  7.25065e+02 -1.95882e+03 -1.23375e+03
  8440    160.176  7.25155e+02 -1.95981e+03 -1.23465e+03
  8450    160.339  7.25889e+02 -1.96167e+03 -1.23578e+03
  8460    160.597  7.27059e+02 -1.96398e+03 -1.23693e+03
  8470    160.899  7.28426e+02 -1.96683e+03 -1.23840e+03
  8480    161.201  7.29795e+02 -1.96979e+03 -1.23999e+03
  8490    161.467  7.30999e+02 -1.97280e+03 -1.24180e+03
  8500    161.660  7.31871e+02 -1.97542e+03 -1.24355e+03
  8510    161.734  7.32204e+02 -1.97797e+03 -1.24576e+03
  8520    161.646  7.31808e+02 -1.97946e+03 -1.24765e+03
  8530    161.367  7.30544e+02 -1.98045e+03 -1.24990e+03
  8540    160.887  7.28374e+02 -1.98068e+03 -1.25230e+03
  8550    160.223  7.25364e+02 -1.98007e+03 -1.25471e+03
  8560    159.404  7.21660e+02 -1.97886e+03 -1.25720e+03
  8570    158.474  7.17446e+02 -1.97737e+03 -1.25993e+03
  8580    157.472  7.12910e+02 -1.97563e+03 -1.26272e+03
  8590    156.432  7.08204e+02 -1.97366e+03 -1.26546e+03
  8600    155.378  7.03433e+02 -1.97177e+03 -1.26834e+03
  8610    154.324  6.98659e+02 -1.96973e+03 -1.27107e+03
  8620    153.277  6.93919e+02 -1.96802e+03 -1.27410e+03
  8630    152.240  6.89226e+02 -1.96635e+03 -1.27712e+03
  8640    151.216  6.84588e+02 -1.96456e+03 -1.27997e+03
  8650    150.207  6.80023e+02 -1.96318e+03 -1.28315e+03
  8660    149.223  6.75565e+02 -1.96166e+03 -1.28609e+03
  8670    148.275  6.71275e+02 -1.96004e+03 -1.28876e+03
  8680    147.385  6.67245e+02 -1.95890e+03 -1.29166e+03
  8690    146.570  6.63557e+02 -1.95808e+03 -1.29452e+03
  8700    145.844  6.60269e+02 -1.95738e+03 -1.29711e+03
  8710    145.210  6.57397e+02 -1.95710e+03 -1.29971e+03
  8720    144.660  6.54909e+02 -1.95722e+03 -1.30231e+03
  8730    144.185  6.52756e+02 -1.95769e+03 -1.30493e+03
  8740    143.774  6.50898e+02 -1.95829e+03 -1.30740e+03
  8750    143.429  6.49333e+02 -1.95908e+03 -1.30975e+03
  8760    143.155  6.48094e+02 -1.96023e+03 -1.31214e+03
  8770    142.965  6.47234e+02 -1.96173e+03 -1.31449e+03
  8780    142.869  6.46800e+02 -1.96367e+03 -1.31687e+03
  8790    142.875  6.46827e+02 -1.96591e+03 -1.31908e+03
  8800    142.990  6.47347e+02 -1.96847e+03 -1.32112e+03
  8810    143.219  6.48384e+02 -1.97147e+03 -1.32308e+03
  8820    143.569  6.49970e+02 -1.97494e+03 -1.32497e+03
  8830    144.044  6.52118e+02 -1.97886e+03 -1.32674e+03
  8840    144.635  6.54795e+02 -1.98332e+03 -1.32853e+03
  8850    145.317  6.57885e+02 -1.98805e+03 -1.33016e+03
  8860    146.045  6.61179e+02 -1.99287e+03 -1.33169e+03
  8870    146.753  6.64382e+02 -1.99777e+03 -1.33339e+03
  8880    147.369  6.67171e+02 -2.00196e+03 -1.33479e+03
  8890    147.831  6.69265e+02 -2.00581e+03 -1.33655e+03
  8900    148.098  6.70475e+02 -2.00864e+03 -1.33816e+03
  8910    148.158  6.70744e+02 -2.01074e+03 -1.34000e+03
  8920    148.023  6.70132e+02 -2.01146e+03 -1.34133e+03
  8930    147.724  6.68782e+02 -2.01136e+03 -1.34257e+03
  8940    147.306  6.66887e+02 -2.01088e+03 -1.34399e+03
  8950    146.813  6.64657e+02 -2.01011e+03 -1.34545e+03
  8960    146.289  6.62285e+02 -2.00913e+03 -1.34685e+03
  8970    145.769  6.59931e+02 -2.00791e+03 -1.34798e+03
  8980    145.279  6.57712e+02 -2.00699e+03 -1.34927e+03
  8990    144.836  6.55703e+02 -2.00624e+03 -1.35053e+03
  9000    144.444  6.53930e+02 -2.00556e+03 -1.35163e+03
  9010    144.102  6.52382e+02 -2.00519e+03 -1.35281e+03
  9020    143.800  6.51015e+02 -2.00475e+03 -1.35373e+03
  9030    143.524  6.49767e+02 -2.00452e+03 -1.35475e+03
  9040    143.259  6.48565e+02 -2.00448e+03 -1.35591e+03
  9050    142.987  6.47333e+02 -2.00423e+03 -1.35690e+03
  9060    142.690  6.45989e+02 -2.00372e+03 -1.35773e+03
  9070    142.350  6.44450e+02 -2.00293e+03 -1.35848e+03
  9080    141.955  6.42661e+02 -2.00150e+03 -1.35884e+03
  9090    141.502  6.40611e+02 -1.99986e+03 -1.35925e+03
  9100    141.005  6.38363e+02 -1.99809e+03 -1.35972e+03
  9110    140.496  6.36056e+02 -1.99618e+03 -1.36012e+03
  9120    140.021  6.33907e+02 -1.99417e+03 -1.36026e+03
  9130    139.641  6.32185e+02 -1.99254e+03 -1.36035e+03
  9140    139.427  6.31218e+02 -1.99161e+03 -1.36039e+03
  9150    139.463  6.31380e+02 -1.99151e+03 -1.36013e+03
  9160    139.834  6.33061e+02 -1.99281e+03 -1.35975e+03
  9170    140.615  6.36595e+02 -1.99595e+03 -1.35935e+03
  9180    141.825  6.42073e+02 -2.00103e+03 -1.35895e+03
  9190    143.392  6.49166e+02 -2.00763e+03 -1.35846e+03
  9200    145.151  6.57133e+02 -2.01482e+03 -1.35769e+03
  9210    146.896  6.65031e+02 -2.02202e+03 -1.35699e+03
  9220    148.440  6.72023e+02 -2.02825e+03 -1.35623e+03
  9230    149.663  6.77560e+02 -2.03296e+03 -1.35540e+03
  9240    150.510  6.81394e+02 -2.03606e+03 -1.35467e+03
  9250    150.979  6.83515e+02 -2.03730e+03 -1.35379e+03
  9260    151.100  6.84065e+02 -2.03718e+03 -1.35312e+03
  9270    150.925  6.83273e+02 -2.03569e+03 -1.35242e+03
  9280    150.512  6.81402e+02 -2.03319e+03 -1.35179e+03
  9290    149.921  6.78724e+02 -2.02969e+03 -1.35097e+03
  9300    149.209  6.75502e+02 -2.02575e+03 -1.35024e+03
  9310    148.431  6.71979e+02 -2.02151e+03 -1.34954e+03
  9320    147.635  6.68379e+02 -2.01725e+03 -1.34887e+03
  9330    146.871  6.64918e+02 -2.01260e+03 -1.34768e+03
  9340    146.186  6.61819e+02 -2.00870e+03 -1.34688e+03
  9350    145.631  6.59306e+02 -2.00533e+03 -1.34603e+03
  9360    145.250  6.57577e+02 -2.00246e+03 -1.34488e+03
  9370    145.069  6.56760e+02 -2.00056e+03 -1.34380e+03
  9380    145.093  6.56868e+02 -1.99954e+03 -1.34267e+03
  9390    145.302  6.57817e+02 -1.99930e+03 -1.34148e+03
  9400    145.666  6.59464e+02 -1.99992e+03 -1.34046e+03
  9410    146.153  6.61669e+02 -2.00097e+03 -1.33931e+03
  9420    146.737  6.64313e+02 -2.00244e+03 -1.33812e+03
  9430    147.396  6.67295e+02 -2.00401e+03 -1.33671e+03
  9440    148.104  6.70501e+02 -2.00597e+03 -1.33547e+03
  9450    148.834  6.73805e+02 -2.00762e+03 -1.33382e+03
  9460    149.555  6.77069e+02 -2.00937e+03 -1.33231e+03
  9470    150.235  6.80150e+02 -2.01119e+03 -1.33104e+03
  9480    150.848  6.82922e+02 -2.01267e+03 -1.32975e+03
  9490    151.367  6.85272e+02 -2.01367e+03 -1.32840e+03
  9500    151.770  6.87098e+02 -2.01394e+03 -1.32684e+03
  9510    152.040  6.88322e+02 -2.01368e+03 -1.32536e+03
  9520    152.165  6.88885e+02 -2.01284e+03 -1.32395e+03
  9530    152.136  6.88756e+02 -2.01151e+03 -1.32275e+03
  9540    151.954  6.87930e+02 -2.00965e+03 -1.32172e+03
  9550    151.624  6.86436e+02 -2.00696e+03 -1.32052e+03
  9560    151.162  6.84344e+02 -2.00363e+03 -1.31929e+03
  9570    150.594  6.81772e+02 -1.99988e+03 -1.31811e+03
  9580    149.960  6.78901e+02 -1.99590e+03 -1.31700e+03
  9590    149.315  6.75984e+02 -1.99184e+03 -1.31586e+03
  9600    148.729  6.73328e+02 -1.98810e+03 -1.31477e+03
  9610    148.275  6.71272e+02 -1.98466e+03 -1.31339e+03
  9620    148.022  6.70131e+02 -1.98234e+03 -1.31221e+03
  9630    148.024  6.70136e+02 -1.98084e+03 -1.31071e+03
  9640    148.300  6.71385e+02 -1.98083e+03 -1.30944e+03
  9650    148.836  6.73812e+02 -1.98189e+03 -1.30807e+03
  9660    149.583  6.77195e+02 -1.98400e+03 -1.30681e+03
  9670    150.464  6.81186e+02 -1.98643e+03 -1.30524e+03
  9680    151.393  6.85391e+02 -1.98905e+03 -1.30366e+03
  9690    152.289  6.89445e+02 -1.99170e+03 -1.30225e+03
  9700    153.093  6.93088e+02 -1.99392e+03 -1.30083e+03
  9710    153.780  6.96196e+02 -1.99571e+03 -1.29951e+03
  9720    154.352  6.98788e+02 -1.99692e+03 -1.29813e+03
  9730    154.835  7.00974e+02 -1.99805e+03 -1.29708e+03
  9740    155.263  7.02910e+02 -1.99890e+03 -1.29600e+03
  9750    155.666  7.04735e+02 -1.99942e+03 -1.29469e+03
  9760    156.064  7.06536e+02 -2.00034e+03 -1.29380e+03
  9770    156.461  7.08332e+02 -2.00112e+03 -1.29279e+03
  9780    156.848  7.10085e+02 -2.00183e+03 -1.29174e+03
  9790    157.209  7.11722e+02 -2.00282e+03 -1.29109e+03
  9800    157.526  7.13157e+02 -2.00341e+03 -1.29025e+03
  9810    157.783  7.14319e+02 -2.00391e+03 -1.28959e+03
  9820    157.968  7.15158e+02 -2.00436e+03 -1.28920e+03
  9830    158.078  7.15657e+02 -2.00448e+03 -1.28882e+03
  9840    158.115  7.15823e+02 -2.00410e+03 -1.28828e+03
  9850    158.084  7.15683e+02 -2.00372e+03 -1.28803e+03
  9860    157.994  7.15273e+02 -2.00314e+03 -1.28786e+03
  9870    157.853  7.14637e+02 -2.00242e+03 -1.28778e+03
  9880    157.673  7.13823e+02 -2.00140e+03 -1.28758e+03
  9890    157.469  7.12897e+02 -2.00034e+03 -1.28744e+03
  9900    157.257  7.11939e+02 -1.99951e+03 -1.28757e+03
  9910    157.060  7.11046e+02 -1.99881e+03 -1.28776e+03
  9920    156.899  7.10317e+02 -1.99830e+03 -1.28798e+03
  9930    156.792  7.09831e+02 -1.99821e+03 -1.28837e+03
  9940    156.746  7.09625e+02 -1.99835e+03 -1.28873e+03
  9950    156.759  7.09684e+02 -1.99884e+03 -1.28916e+03
  9960    156.813  7.09928e+02 -1.99992e+03 -1.28999e+03
  9970    156.877  7.10219e+02 -2.00094e+03 -1.29072e+03
  9980    156.915  7.10391e+02 -2.00201e+03 -1.29161e+03
  9990    156.890  7.10278e+02 -2.00292e+03 -1.29265e+03
